         Num  Time(s)  PosAbs(mm)  Pos(mm)  Pos(%)  Load(kN)
0        1.0    0.005    -15.9379  -0.0002     0.0    0.0876
10      11.0    2.005    -15.8049   0.1327     0.0    0.1189
20      21.0    4.005    -15.6716   0.2661     0.0    0.1438
30      31.0    6.005    -15.5386   0.3991     0.0    0.2159
40      41.0    8.005    -15.4047   0.5330     0.0    0.3100
50      51.0   10.005    -15.2723   0.6653     0.0    0.4204
60      61.0   12.005    -15.1378   0.7999     0.0    0.5504
70      71.0   14.005    -15.0047   0.9330     0.0    0.7043
80      81.0   16.005    -14.8714   1.0663     0.0    0.8698
90      91.0   18.005    -14.7374   1.2002     0.0    1.0406
100    101.0   20.005    -14.6047   1.3330     0.0    1.2243
110    111.0   22.005    -14.4712   1.4665     0.0    1.4117
120    121.0   24.005    -14.3380   1.5997     0.0    1.6006
130    131.0   26.005    -14.2049   1.7328     0.0    1.7858
140    141.0   28.005    -14.0719   1.8657     0.0    1.9765
150    151.0   30.005    -13.9375   2.0002     0.0    2.1608
160    161.0   32.005    -13.8054   2.1323     0.0    2.3420
170    171.0   34.005    -13.6718   2.2659     0.0    2.5169
180    181.0   36.005    -13.5378   2.3999     0.0    2.6890
190    191.0   38.005    -13.4040   2.5337     0.0    2.8697
200    201.0   40.005    -13.2717   2.6660     0.0    3.0297
210    211.0   42.005    -13.1382   2.7995     0.0    3.0790
220    221.0   44.005    -13.0045   2.9331     0.0    3.1945
230    231.0   46.005    -12.8712   3.0665     0.0    3.2327
240    241.0   48.005    -12.7379   3.1998     0.0    3.2601
250    251.0   50.005    -12.6049   3.3328     0.0    3.2889
260    261.0   52.005    -12.4716   3.4661     0.0    3.2998
270    271.0   54.005    -12.3386   3.5990     0.0    3.3010
280    281.0   56.005    -12.2046   3.7331     0.0    3.2998
290    291.0   58.005    -12.0705   3.8672     0.0    3.3171
300    301.0   60.005    -11.9381   3.9996     0.0    3.3224
310    311.0   62.005    -11.8046   4.1330     0.0    3.3628
320    321.0   64.005    -11.6710   4.2666     0.0    3.3835
330    331.0   66.005    -11.5385   4.3992     0.0    3.4569
340    341.0   68.005    -11.4044   4.5332     0.0    3.4915
350    351.0   70.005    -11.2719   4.6658     0.0    3.4976
360    361.0   72.005    -11.1383   4.7994     0.0    3.5118
370    371.0   74.005    -11.0049   4.9328     0.0    3.5762
380    381.0   76.005    -10.8717   5.0660     0.0    3.6240
390    391.0   78.005    -10.7386   5.1991     0.0    3.6651
400    401.0   80.005    -10.6050   5.3327     0.0    3.7613
410    411.0   82.005    -10.4713   5.4664     0.0    3.8256
420    421.0   84.005    -10.3384   5.5993     0.0    3.8764
430    431.0   86.005    -10.2058   5.7319     0.0    3.9366
440    441.0   88.005    -10.0719   5.8658     0.0    3.9590
456    451.0   89.215    -10.0191   5.9186     0.0    3.9003
466    461.0   89.615    -10.0184   5.9192     0.0    3.8835
476    471.0   90.015    -10.0186   5.9191     0.0    3.8700
486    481.0   90.415    -10.0186   5.9191     0.0    3.8537
496    491.0   90.815    -10.0190   5.9186     0.0    3.8386
506    501.0   91.215    -10.0187   5.9190     0.0    3.8285
516    511.0   91.615    -10.0190   5.9187     0.0    3.8156
526    521.0   92.015    -10.0187   5.9190     0.0    3.8040
536    531.0   92.415    -10.0182   5.9195     0.0    3.7920
546    541.0   92.815    -10.0193   5.9184     0.0    3.7884
556    551.0   93.215    -10.0184   5.9193     0.0    3.7827
566    561.0   93.615    -10.0186   5.9191     0.0    3.7787
576    571.0   94.015    -10.0183   5.9193     0.0    3.7665
586    581.0   94.415    -10.0191   5.9185     0.0    3.7543
596    591.0   94.815    -10.0183   5.9194     0.0    3.7426
606    601.0   95.215    -10.0178   5.9199     0.0    3.7351
616    611.0   95.615    -10.0186   5.9190     0.0    3.7325
626    621.0   96.015    -10.0189   5.9188     0.0    3.7250
643    631.0   96.460    -10.0033   5.9344     0.0    3.8044
653    641.0   96.860     -9.9767   5.9610     0.0    3.9278
663    651.0   97.260     -9.9498   5.9879     0.0    4.0140
673    661.0   97.660     -9.9235   6.0142     0.0    4.0691
683    671.0   98.060     -9.8966   6.0410     0.0    4.1301
693    681.0   98.460     -9.8705   6.0672     0.0    4.1873
703    691.0   98.860     -9.8436   6.0941     0.0    4.2473
713    701.0   99.260     -9.8167   6.1210     0.0    4.2996
723    711.0   99.660     -9.7899   6.1478     0.0    4.3560
733    721.0  100.060     -9.7638   6.1739     0.0    4.4083
743    731.0  100.460     -9.7369   6.2008     0.0    4.4588
753    741.0  100.860     -9.7101   6.2276     0.0    4.5032
763    751.0  101.260     -9.6843   6.2534     0.0    4.5474
773    761.0  101.660     -9.6570   6.2807     0.0    4.5920
783    771.0  102.060     -9.6308   6.3069     0.0    4.6265
793    781.0  102.460     -9.6037   6.3339     0.0    4.6713
803    791.0  102.860     -9.5770   6.3607     0.0    4.7068
813    801.0  103.260     -9.5502   6.3875     0.0    4.7489
823    811.0  103.660     -9.5233   6.4144     0.0    4.7862
833    821.0  104.060     -9.4965   6.4411     0.0    4.8227
843    831.0  104.460     -9.4701   6.4676     0.0    4.8517
853    841.0  104.860     -9.4436   6.4940     0.0    4.8885
863    851.0  105.260     -9.4169   6.5208     0.0    4.9233
873    861.0  105.660     -9.3907   6.5469     0.0    4.9578
883    871.0  106.060     -9.3641   6.5736     0.0    4.9931
893    881.0  106.460     -9.3367   6.6010     0.0    5.0258
903    891.0  106.860     -9.3101   6.6276     0.0    5.0565
913    901.0  107.260     -9.2833   6.6544     0.0    5.0938
923    911.0  107.660     -9.2567   6.6810     0.0    5.1253
933    921.0  108.060     -9.2302   6.7075     0.0    5.1566
943    931.0  108.460     -9.2037   6.7340     0.0    5.1772
953    941.0  108.860     -9.1767   6.7609     0.0    5.2152
963    951.0  109.260     -9.1501   6.7875     0.0    5.2568
973    961.0  109.660     -9.1232   6.8145     0.0    5.2836
983    971.0  110.060     -9.0972   6.8405     0.0    5.3194
993    981.0  110.460     -9.0702   6.8675     0.0    5.3616
1003   991.0  110.860     -9.0436   6.8941     0.0    5.4003
1013  1001.0  111.260     -9.0171   6.9206     0.0    5.4392
1023  1011.0  111.660     -8.9903   6.9474     0.0    5.4700
1033  1021.0  112.060     -8.9635   6.9742     0.0    5.5086
1043  1031.0  112.460     -8.9368   7.0009     0.0    5.5498
1053  1041.0  112.860     -8.9103   7.0274     0.0    5.5772
1063  1051.0  113.260     -8.8838   7.0538     0.0    5.6062
1073  1061.0  113.660     -8.8570   7.0807     0.0    5.6337
1083  1071.0  114.060     -8.8302   7.1074     0.0    5.6594
1093  1081.0  114.460     -8.8037   7.1340     0.0    5.6845
1103  1091.0  114.860     -8.7771   7.1606     0.0    5.7187
1113  1101.0  115.260     -8.7503   7.1873     0.0    5.7445
1123  1111.0  115.660     -8.7241   7.2136     0.0    5.7763
1133  1121.0  116.060     -8.6971   7.2406     0.0    5.8052
1143  1131.0  116.460     -8.6701   7.2676     0.0    5.8379
1153  1141.0  116.860     -8.6435   7.2942     0.0    5.8746
1163  1151.0  117.260     -8.6173   7.3203     0.0    5.9032
1173  1161.0  117.660     -8.5903   7.3473     0.0    5.9359
1183  1171.0  118.060     -8.5639   7.3738     0.0    5.9715
1193  1181.0  118.460     -8.5367   7.4009     0.0    6.0053
1203  1191.0  118.860     -8.5105   7.4272     0.0    6.0481
1213  1201.0  119.260     -8.4836   7.4540     0.0    6.0801
1223  1211.0  119.660     -8.4571   7.4805     0.0    6.1130
1233  1221.0  120.060     -8.4305   7.5072     0.0    6.1445
1243  1231.0  120.460     -8.4042   7.5335     0.0    6.1790
1253  1241.0  120.860     -8.3776   7.5601     0.0    6.2051
1263  1251.0  121.260     -8.3505   7.5871     0.0    6.2443
1273  1261.0  121.660     -8.3236   7.6140     0.0    6.2746
1283  1271.0  122.060     -8.2974   7.6402     0.0    6.3107
1293  1281.0  122.460     -8.2704   7.6673     0.0    6.3500
1303  1291.0  122.860     -8.2438   7.6939     0.0    6.3867
1313  1301.0  123.260     -8.2170   7.7206     0.0    6.4289
1323  1311.0  123.660     -8.1901   7.7476     0.0    6.4641
1333  1321.0  124.060     -8.1639   7.7738     0.0    6.5034
1343  1331.0  124.460     -8.1376   7.8000     0.0    6.5382
1353  1341.0  124.860     -8.1103   7.8274     0.0    6.5816
1363  1351.0  125.260     -8.0839   7.8538     0.0    6.6226
1373  1361.0  125.660     -8.0567   7.8809     0.0    6.6678
1383  1371.0  126.060     -8.0304   7.9073     0.0    6.7131
1393  1381.0  126.460     -8.0038   7.9339     0.0    6.7531
1403  1391.0  126.860     -7.9768   7.9609     0.0    6.8034
1413  1401.0  127.260     -7.9507   7.9870     0.0    6.8496
1423  1411.0  127.660     -7.9240   8.0137     0.0    6.8975
1433  1421.0  128.060     -7.8974   8.0402     0.0    6.9449
1443  1431.0  128.460     -7.8700   8.0677     0.0    6.9941
1453  1441.0  128.860     -7.8439   8.0937     0.0    7.0357
1463  1451.0  129.260     -7.8172   8.1205     0.0    7.0826
1473  1461.0  129.660     -7.7907   8.1470     0.0    7.1332
1483  1471.0  130.060     -7.7639   8.1737     0.0    7.1804
1493  1481.0  130.460     -7.7372   8.2004     0.0    7.2255
1503  1491.0  130.860     -7.7106   8.2271     0.0    7.2659
1513  1501.0  131.260     -7.6837   8.2540     0.0    7.3128
1523  1511.0  131.660     -7.6575   8.2802     0.0    7.3569
1533  1521.0  132.060     -7.6307   8.3070     0.0    7.4106
1543  1531.0  132.460     -7.6039   8.3337     0.0    7.4546
1553  1541.0  132.860     -7.5775   8.3602     0.0    7.4965
1563  1551.0  133.260     -7.5503   8.3873     0.0    7.5512
1573  1561.0  133.660     -7.5238   8.4139     0.0    7.5971
1583  1571.0  134.060     -7.4973   8.4404     0.0    7.6407
1593  1581.0  134.460     -7.4707   8.4669     0.0    7.6913
1603  1591.0  134.860     -7.4438   8.4939     0.0    7.7389
1613  1601.0  135.260     -7.4173   8.5204     0.0    7.7882
1623  1611.0  135.660     -7.3907   8.5470     0.0    7.8577
1633  1621.0  136.060     -7.3641   8.5736     0.0    7.9137
1643  1631.0  136.460     -7.3374   8.6002     0.0    7.9841
1659  1641.0  136.850     -7.3430   8.5946     0.0    7.7669
1669  1651.0  137.250     -7.3431   8.5946     0.0    7.6915
1679  1661.0  137.650     -7.3434   8.5943     0.0    7.6188
1689  1671.0  138.050     -7.3436   8.5941     0.0    7.5655
1699  1681.0  138.450     -7.3435   8.5942     0.0    7.5148
1709  1691.0  138.850     -7.3433   8.5944     0.0    7.4723
1719  1701.0  139.250     -7.3431   8.5946     0.0    7.4417
1729  1711.0  139.650     -7.3434   8.5943     0.0    7.4136
1739  1721.0  140.050     -7.3429   8.5948     0.0    7.3791
1749  1731.0  140.450     -7.3434   8.5943     0.0    7.3461
1759  1741.0  140.850     -7.3433   8.5944     0.0    7.3151
1769  1751.0  141.250     -7.3430   8.5946     0.0    7.2988
1779  1761.0  141.650     -7.3429   8.5947     0.0    7.2669
1789  1771.0  142.050     -7.3432   8.5944     0.0    7.2520
1799  1781.0  142.450     -7.3431   8.5946     0.0    7.2233
1809  1791.0  142.850     -7.3435   8.5942     0.0    7.1986
1819  1801.0  143.250     -7.3433   8.5944     0.0    7.1857
1829  1811.0  143.650     -7.3432   8.5945     0.0    7.1700
1839  1821.0  144.050     -7.3428   8.5949     0.0    7.1633
1849  1831.0  144.450     -7.3431   8.5946     0.0    7.1528
1866  1841.0  144.920     -7.3328   8.6049     0.0    7.2415
1876  1851.0  145.320     -7.3071   8.6306     0.0    7.4565
1886  1861.0  145.720     -7.2805   8.6571     0.0    7.6512
1896  1871.0  146.120     -7.2535   8.6842     0.0    7.8152
1906  1881.0  146.520     -7.2268   8.7108     0.0    7.9672
1916  1891.0  146.920     -7.2006   8.7371     0.0    8.0911
1926  1901.0  147.320     -7.1733   8.7644     0.0    8.2118
1936  1911.0  147.720     -7.1463   8.7913     0.0    8.3012
1946  1921.0  148.120     -7.1201   8.8176     0.0    8.3907
1956  1931.0  148.520     -7.0934   8.8443     0.0    8.4797
1966  1941.0  148.920     -7.0665   8.8711     0.0    8.5627
1976  1951.0  149.320     -7.0399   8.8977     0.0    8.6415
1986  1961.0  149.720     -7.0136   8.9241     0.0    8.7085
1996  1971.0  150.120     -6.9869   8.9508     0.0    8.7846
2006  1981.0  150.520     -6.9600   8.9777     0.0    8.8580
2016  1991.0  150.920     -6.9331   9.0045     0.0    8.9207
2026  2001.0  151.320     -6.9068   9.0309     0.0    8.9884
2036  2011.0  151.720     -6.8801   9.0576     0.0    9.0587
2046  2021.0  152.120     -6.8535   9.0842     0.0    9.1259
2056  2031.0  152.520     -6.8271   9.1106     0.0    9.1896
2066  2041.0  152.920     -6.8000   9.1377     0.0    9.2506
2076  2051.0  153.320     -6.7738   9.1639     0.0    9.3215
2086  2061.0  153.720     -6.7467   9.1910     0.0    9.3880
2096  2071.0  154.120     -6.7204   9.2173     0.0    9.4549
2106  2081.0  154.520     -6.6937   9.2440     0.0    9.5223
2116  2091.0  154.920     -6.6670   9.2707     0.0    9.5915
2126  2101.0  155.320     -6.6400   9.2977     0.0    9.6557
2136  2111.0  155.720     -6.6138   9.3239     0.0    9.7244
2146  2121.0  156.120     -6.5872   9.3505     0.0    9.7856
2156  2131.0  156.520     -6.5606   9.3771     0.0    9.8550
2166  2141.0  156.920     -6.5337   9.4040     0.0    9.9313
2176  2151.0  157.320     -6.5069   9.4308     0.0    9.9987
2186  2161.0  157.720     -6.4801   9.4576     0.0   10.0685
2196  2171.0  158.120     -6.4539   9.4838     0.0   10.1407
2206  2181.0  158.520     -6.4274   9.5103     0.0   10.2119
2216  2191.0  158.920     -6.4004   9.5373     0.0   10.2798
2226  2201.0  159.320     -6.3739   9.5637     0.0   10.3570
2236  2211.0  159.720     -6.3473   9.5903     0.0   10.4302
2246  2221.0  160.120     -6.3210   9.6167     0.0   10.5008
2256  2231.0  160.520     -6.2940   9.6437     0.0   10.5824
2266  2241.0  160.920     -6.2672   9.6704     0.0   10.6524
2276  2251.0  161.320     -6.2402   9.6974     0.0   10.7286
2286  2261.0  161.720     -6.2138   9.7238     0.0   10.8003
2296  2271.0  162.120     -6.1874   9.7502     0.0   10.8771
2306  2281.0  162.520     -6.1603   9.7774     0.0   10.9543
2316  2291.0  162.920     -6.1337   9.8039     0.0   11.0311
2326  2301.0  163.320     -6.1073   9.8304     0.0   11.1115
2336  2311.0  163.720     -6.0804   9.8573     0.0   11.1895
2346  2321.0  164.120     -6.0538   9.8839     0.0   11.2725
2356  2331.0  164.520     -6.0272   9.9105     0.0   11.3472
2366  2341.0  164.920     -6.0007   9.9370     0.0   11.4292
2376  2351.0  165.320     -5.9739   9.9638     0.0   11.5129
2386  2361.0  165.720     -5.9472   9.9905     0.0   11.5959
2396  2371.0  166.120     -5.9205  10.0172     0.0   11.6790
2406  2381.0  166.520     -5.8938  10.0439     0.0   11.7591
2416  2391.0  166.920     -5.8671  10.0706     0.0   11.8453
2426  2401.0  167.320     -5.8408  10.0969     0.0   11.9298
2442  2411.0  167.725     -5.8316  10.1061     0.0   11.7642
2452  2421.0  168.125     -5.8329  10.1048     0.0   11.6236
2462  2431.0  168.525     -5.8329  10.1048     0.0   11.5115
2472  2441.0  168.925     -5.8327  10.1050     0.0   11.4257
2482  2451.0  169.325     -5.8332  10.1045     0.0   11.3484
2492  2461.0  169.725     -5.8331  10.1046     0.0   11.2729
2502  2471.0  170.125     -5.8330  10.1046     0.0   11.2116
2512  2481.0  170.525     -5.8330  10.1047     0.0   11.1731
2522  2491.0  170.925     -5.8329  10.1048     0.0   11.1230
2532  2501.0  171.325     -5.8331  10.1046     0.0   11.0784
2542  2511.0  171.725     -5.8329  10.1048     0.0   11.0385
2552  2521.0  172.125     -5.8327  10.1050     0.0   11.0006
2562  2531.0  172.525     -5.8330  10.1047     0.0   10.9563
2572  2541.0  172.925     -5.8329  10.1048     0.0   10.9354
2582  2551.0  173.325     -5.8329  10.1047     0.0   10.9026
2592  2561.0  173.725     -5.8329  10.1047     0.0   10.8700
2602  2571.0  174.125     -5.8329  10.1048     0.0   10.8402
2612  2581.0  174.525     -5.8327  10.1050     0.0   10.8165
2622  2591.0  174.925     -5.8328  10.1048     0.0   10.7893
2632  2601.0  175.325     -5.8329  10.1048     0.0   10.7673
2642  2611.0  175.725     -5.8328  10.1049     0.0   10.7397
2652  2621.0  176.125     -5.8331  10.1046     0.0   10.7116
2662  2631.0  176.525     -5.8325  10.1052     0.0   10.6939
2672  2641.0  176.925     -5.8327  10.1049     0.0   10.6802
2682  2651.0  177.325     -5.8329  10.1048     0.0   10.6514
2692  2661.0  177.725     -5.8329  10.1048     0.0   10.6418
2702  2671.0  178.125     -5.8330  10.1047     0.0   10.6180
2712  2681.0  178.525     -5.8328  10.1049     0.0   10.6050
2722  2691.0  178.925     -5.8325  10.1052     0.0   10.5898
2732  2701.0  179.325     -5.8329  10.1048     0.0   10.5709
2742  2711.0  179.725     -5.8326  10.1051     0.0   10.5320
2752  2721.0  180.125     -5.8329  10.1048     0.0   10.5240
2762  2731.0  180.525     -5.8329  10.1048     0.0   10.5143
2772  2741.0  180.925     -5.8329  10.1048     0.0   10.5008
2789  2751.0  181.405     -5.8226  10.1151     0.0   10.6397
2799  2761.0  181.805     -5.7963  10.1414     0.0   10.9607
2809  2771.0  182.205     -5.7695  10.1682     0.0   11.2551
2819  2781.0  182.605     -5.7430  10.1946     0.0   11.5154
2829  2791.0  183.005     -5.7163  10.2214     0.0   11.7614
2839  2801.0  183.405     -5.6896  10.2480     0.0   11.9674
2849  2811.0  183.805     -5.6632  10.2745     0.0   12.1544
2859  2821.0  184.205     -5.6365  10.3012     0.0   12.3232
2869  2831.0  184.605     -5.6096  10.3280     0.0   12.4528
2879  2841.0  185.005     -5.5832  10.3545     0.0   12.6091
2889  2851.0  185.405     -5.5563  10.3814     0.0   12.7570
2899  2861.0  185.805     -5.5298  10.4078     0.0   12.8909
2909  2871.0  186.205     -5.5030  10.4347     0.0   13.0197
2919  2881.0  186.605     -5.4766  10.4611     0.0   13.1477
2929  2891.0  187.005     -5.4498  10.4879     0.0   13.2672
2939  2901.0  187.405     -5.4232  10.5145     0.0   13.3822
2949  2911.0  187.805     -5.3966  10.5410     0.0   13.4846
2959  2921.0  188.205     -5.3699  10.5678     0.0   13.5983
2969  2931.0  188.605     -5.3433  10.5944     0.0   13.7046
2979  2941.0  189.005     -5.3166  10.6211     0.0   13.8159
2989  2951.0  189.405     -5.2900  10.6477     0.0   13.9278
2999  2961.0  189.805     -5.2635  10.6741     0.0   14.0334
3009  2971.0  190.205     -5.2366  10.7011     0.0   14.1499
3019  2981.0  190.605     -5.2099  10.7277     0.0   14.2458
3029  2991.0  191.005     -5.1835  10.7542     0.0   14.3552
3039  3001.0  191.405     -5.1569  10.7808     0.0   14.4612
3049  3011.0  191.805     -5.1299  10.8077     0.0   14.5717
3059  3021.0  192.205     -5.1035  10.8342     0.0   14.6745
3069  3031.0  192.605     -5.0767  10.8609     0.0   14.7786
3079  3041.0  193.005     -5.0499  10.8878     0.0   14.8917
3089  3051.0  193.405     -5.0233  10.9143     0.0   14.9977
3099  3061.0  193.805     -4.9966  10.9411     0.0   15.1128
3109  3071.0  194.205     -4.9703  10.9673     0.0   15.2162
3119  3081.0  194.605     -4.9435  10.9942     0.0   15.3298
3129  3091.0  195.005     -4.9168  11.0209     0.0   15.4377
3139  3101.0  195.405     -4.8902  11.0474     0.0   15.5467
3149  3111.0  195.805     -4.8635  11.0742     0.0   15.6645
3159  3121.0  196.205     -4.8371  11.1006     0.0   15.7745
3169  3131.0  196.605     -4.8102  11.1274     0.0   15.8957
3179  3141.0  197.004     -4.7837  11.1540     0.0   16.0061
3195  3151.0  197.425     -4.7984  11.1393     0.0   15.5584
3205  3161.0  197.825     -4.7986  11.1391     0.0   15.4130
3215  3171.0  198.225     -4.7985  11.1392     0.0   15.2924
3225  3181.0  198.625     -4.7988  11.1389     0.0   15.1949
3235  3191.0  199.025     -4.7987  11.1390     0.0   15.1031
3245  3201.0  199.425     -4.7985  11.1391     0.0   15.0353
3255  3211.0  199.825     -4.7984  11.1393     0.0   14.9659
3265  3221.0  200.225     -4.7989  11.1387     0.0   14.8923
3275  3231.0  200.625     -4.7985  11.1392     0.0   14.8389
3285  3241.0  201.025     -4.7988  11.1389     0.0   14.7841
3295  3251.0  201.425     -4.7988  11.1389     0.0   14.7554
3305  3261.0  201.825     -4.7984  11.1393     0.0   14.7087
3315  3271.0  202.225     -4.7984  11.1393     0.0   14.6727
3325  3281.0  202.625     -4.7984  11.1392     0.0   14.6307
3335  3291.0  203.025     -4.7985  11.1392     0.0   14.5884
3345  3301.0  203.425     -4.7984  11.1392     0.0   14.5518
3355  3311.0  203.825     -4.7986  11.1391     0.0   14.5050
3365  3321.0  204.225     -4.7987  11.1390     0.0   14.4782
3375  3331.0  204.625     -4.7984  11.1393     0.0   14.4438
3385  3341.0  205.025     -4.7982  11.1394     0.0   14.4053
3395  3351.0  205.425     -4.7981  11.1396     0.0   14.3839
3405  3361.0  205.825     -4.7981  11.1396     0.0   14.3509
3415  3371.0  206.225     -4.7987  11.1390     0.0   14.3263
3425  3381.0  206.625     -4.7983  11.1394     0.0   14.3052
3435  3391.0  207.025     -4.7986  11.1391     0.0   14.2819
3445  3401.0  207.425     -4.7984  11.1392     0.0   14.2610
3455  3411.0  207.825     -4.7985  11.1392     0.0   14.2415
3465  3421.0  208.225     -4.7984  11.1392     0.0   14.2227
3481  3431.0  208.660     -4.7860  11.1517     0.0   14.4084
3491  3441.0  209.060     -4.7595  11.1782     0.0   14.8013
3501  3451.0  209.460     -4.7329  11.2048     0.0   15.1529
3511  3461.0  209.860     -4.7062  11.2315     0.0   15.4797
3521  3471.0  210.260     -4.6796  11.2581     0.0   15.7684
3531  3481.0  210.660     -4.6528  11.2849     0.0   16.0234
3541  3491.0  211.060     -4.6260  11.3116     0.0   16.2694
3551  3501.0  211.460     -4.5992  11.3385     0.0   16.4705
3561  3511.0  211.860     -4.5725  11.3652     0.0   16.6618
3571  3521.0  212.260     -4.5461  11.3916     0.0   16.8538
3581  3531.0  212.660     -4.5195  11.4182     0.0   17.0304
3591  3541.0  213.060     -4.4927  11.4449     0.0   17.2063
3601  3551.0  213.460     -4.4663  11.4714     0.0   17.3780
3611  3561.0  213.860     -4.4395  11.4981     0.0   17.5416
3621  3571.0  214.260     -4.4128  11.5249     0.0   17.6959
3631  3581.0  214.660     -4.3863  11.5514     0.0   17.8496
3641  3591.0  215.060     -4.3595  11.5782     0.0   18.0000
3651  3601.0  215.460     -4.3329  11.6048     0.0   18.1464
3661  3611.0  215.860     -4.3061  11.6315     0.0   18.2937
3671  3621.0  216.260     -4.2799  11.6578     0.0   18.4318
3681  3631.0  216.660     -4.2530  11.6846     0.0   18.5719
3691  3641.0  217.060     -4.2264  11.7113     0.0   18.7081
3701  3651.0  217.460     -4.1998  11.7379     0.0   18.8475
3711  3661.0  217.860     -4.1731  11.7646     0.0   18.9925
3721  3671.0  218.260     -4.1466  11.7911     0.0   19.1259
3731  3681.0  218.660     -4.1199  11.8178     0.0   19.2647
3741  3691.0  219.060     -4.0929  11.8448     0.0   19.4041
3751  3701.0  219.460     -4.0666  11.8711     0.0   19.5401
3761  3711.0  219.860     -4.0401  11.8976     0.0   19.6806
3771  3721.0  220.260     -4.0130  11.9247     0.0   19.8265
3781  3731.0  220.660     -3.9866  11.9511     0.0   19.9705
3791  3741.0  221.060     -3.9600  11.9776     0.0   20.1123
3801  3751.0  221.460     -3.9334  12.0043     0.0   20.2540
3811  3761.0  221.860     -3.9065  12.0312     0.0   20.4032
3821  3771.0  222.260     -3.8800  12.0577     0.0   20.5508
3831  3781.0  222.660     -3.8532  12.0845     0.0   20.6927
3841  3791.0  223.060     -3.8264  12.1113     0.0   20.8416
3851  3801.0  223.460     -3.8001  12.1376     0.0   20.9892
3861  3811.0  223.860     -3.7733  12.1644     0.0   21.1371
3871  3821.0  224.260     -3.7466  12.1910     0.0   21.2887
3881  3831.0  224.660     -3.7200  12.2177     0.0   21.4438
3891  3841.0  225.060     -3.6934  12.2443     0.0   21.5981
3901  3851.0  225.460     -3.6666  12.2711     0.0   21.7516
3911  3861.0  225.860     -3.6398  12.2979     0.0   21.9064
3921  3871.0  226.260     -3.6132  12.3245     0.0   22.0584
3931  3881.0  226.660     -3.5863  12.3514     0.0   22.2197
3941  3891.0  227.060     -3.5601  12.3776     0.0   22.3756
3951  3901.0  227.460     -3.5333  12.4043     0.0   22.5382
3961  3911.0  227.860     -3.5063  12.4314     0.0   22.7044
3971  3921.0  228.260     -3.4800  12.4577     0.0   22.8613
3981  3931.0  228.660     -3.4532  12.4844     0.0   23.0221
3991  3941.0  229.060     -3.4267  12.5110     0.0   23.1823
4001  3951.0  229.460     -3.4000  12.5377     0.0   23.3513
4011  3961.0  229.860     -3.3733  12.5644     0.0   23.5085
4021  3971.0  230.260     -3.3469  12.5908     0.0   23.6812
4031  3981.0  230.660     -3.3202  12.6175     0.0   23.8544
4041  3991.0  231.060     -3.2933  12.6444     0.0   24.0269
4051  4001.0  231.460     -3.2667  12.6709     0.0   24.1955
4061  4011.0  231.860     -3.2398  12.6979     0.0   24.3702
4071  4021.0  232.260     -3.2135  12.7242     0.0   24.5445
4081  4031.0  232.660     -3.1867  12.7510     0.0   24.7195
4091  4041.0  233.060     -3.1601  12.7776     0.0   24.8977
4101  4051.0  233.460     -3.1334  12.8043     0.0   25.0715
4111  4061.0  233.860     -3.1068  12.8309     0.0   25.2552
4121  4071.0  234.260     -3.0803  12.8573     0.0   25.4304
4131  4081.0  234.660     -3.0533  12.8843     0.0   25.6161
4141  4091.0  235.060     -3.0266  12.9110     0.0   25.7960
4151  4101.0  235.460     -3.0002  12.9375     0.0   25.9795
4161  4111.0  235.860     -2.9736  12.9641     0.0   26.1599
4171  4121.0  236.260     -2.9469  12.9907     0.0   26.3471
4181  4131.0  236.660     -2.9202  13.0175     0.0   26.5287
4191  4141.0  237.060     -2.8933  13.0443     0.0   26.7111
4201  4151.0  237.460     -2.8668  13.0709     0.0   26.8996
4211  4161.0  237.860     -2.8400  13.0977     0.0   27.0935
4221  4171.0  238.260     -2.8133  13.1244     0.0   27.2951
4231  4181.0  238.660     -2.7868  13.1508     0.0   27.4829
4241  4191.0  239.060     -2.7603  13.1774     0.0   27.6804
4251  4201.0  239.460     -2.7333  13.2043     0.0   27.8770
4261  4211.0  239.860     -2.7069  13.2308     0.0   28.0766
4271  4221.0  240.260     -2.6800  13.2577     0.0   28.2744
4281  4231.0  240.660     -2.6534  13.2843     0.0   28.4733
4291  4241.0  241.060     -2.6268  13.3109     0.0   28.6699
4301  4251.0  241.460     -2.6003  13.3373     0.0   28.8612
4311  4261.0  241.860     -2.5737  13.3640     0.0   29.0672
4321  4271.0  242.260     -2.5471  13.3906     0.0   29.2679
4331  4281.0  242.660     -2.5201  13.4175     0.0   29.4713
4341  4291.0  243.060     -2.4935  13.4441     0.0   29.6777
4351  4301.0  243.460     -2.4670  13.4707     0.0   29.8804
4361  4311.0  243.860     -2.4402  13.4974     0.0   30.0890
4371  4321.0  244.260     -2.4138  13.5239     0.0   30.2915
4381  4331.0  244.660     -2.3869  13.5508     0.0   30.5062
4391  4341.0  245.060     -2.3603  13.5773     0.0   30.7064
4401  4351.0  245.460     -2.3337  13.6040     0.0   30.9198
4411  4361.0  245.860     -2.3069  13.6307     0.0   31.1345
4421  4371.0  246.260     -2.2802  13.6575     0.0   31.3417
4431  4381.0  246.660     -2.2537  13.6840     0.0   31.5614
4441  4391.0  247.060     -2.2269  13.7108     0.0   31.7775
4451  4401.0  247.460     -2.2004  13.7373     0.0   31.9910
4461  4411.0  247.860     -2.1738  13.7639     0.0   32.2119
4471  4421.0  248.260     -2.1470  13.7906     0.0   32.4305
4481  4431.0  248.660     -2.1203  13.8174     0.0   32.6467
4491  4441.0  249.060     -2.0937  13.8440     0.0   32.8725
4501  4451.0  249.460     -2.0671  13.8706     0.0   33.0846
4511  4461.0  249.860     -2.0404  13.8973     0.0   33.3123
4521  4471.0  250.260     -2.0137  13.9239     0.0   33.5302
4531  4481.0  250.660     -1.9872  13.9504     0.0   33.7580
4541  4491.0  251.060     -1.9603  13.9773     0.0   33.9831
4551  4501.0  251.460     -1.9337  14.0040     0.0   34.2052
4561  4511.0  251.860     -1.9072  14.0304     0.0   34.4298
4571  4521.0  252.260     -1.8803  14.0573     0.0   34.6573
4581  4531.0  252.660     -1.8536  14.0840     0.0   34.8855
4591  4541.0  253.060     -1.8272  14.1105     0.0   35.1109
4601  4551.0  253.460     -1.8004  14.1373     0.0   35.3428
4611  4561.0  253.860     -1.7737  14.1639     0.0   35.5670
4621  4571.0  254.260     -1.7471  14.1906     0.0   35.7949
4631  4581.0  254.660     -1.7204  14.2173     0.0   36.0210
4641  4591.0  255.060     -1.6940  14.2437     0.0   36.2516
4651  4601.0  255.460     -1.6673  14.2703     0.0   36.4808
4661  4611.0  255.860     -1.6404  14.2973     0.0   36.7072
4671  4621.0  256.260     -1.6139  14.3238     0.0   36.9380
4681  4631.0  256.660     -1.5872  14.3504     0.0   37.1653
4691  4641.0  257.060     -1.5607  14.3769     0.0   37.3910
4701  4651.0  257.460     -1.5339  14.4037     0.0   37.6212
4711  4661.0  257.860     -1.5071  14.4305     0.0   37.8486
4721  4671.0  258.260     -1.4805  14.4571     0.0   38.0739
4731  4681.0  258.660     -1.4539  14.4838     0.0   38.3000
4741  4691.0  259.060     -1.4272  14.5104     0.0   38.5185
4751  4701.0  259.460     -1.4006  14.5370     0.0   38.7402
4761  4711.0  259.860     -1.3740  14.5637     0.0   38.9669
4771  4721.0  260.260     -1.3471  14.5906     0.0   39.1888
4781  4731.0  260.660     -1.3206  14.6171     0.0   39.4116
4791  4741.0  261.060     -1.2941  14.6435     0.0   39.6311
4801  4751.0  261.460     -1.2672  14.6705     0.0   39.8463
4811  4761.0  261.860     -1.2406  14.6971     0.0   40.0604
4821  4771.0  262.260     -1.2140  14.7237     0.0   40.2725
4831  4781.0  262.660     -1.1872  14.7505     0.0   40.4816
4841  4791.0  263.060     -1.1608  14.7769     0.0   40.6925
4851  4801.0  263.460     -1.1339  14.8038     0.0   40.9030
4861  4811.0  263.860     -1.1072  14.8305     0.0   41.1011
4871  4821.0  264.260     -1.0809  14.8568     0.0   41.3131
4881  4831.0  264.660     -1.0538  14.8838     0.0   41.5164
4891  4841.0  265.060     -1.0274  14.9103     0.0   41.7013
4901  4851.0  265.460     -1.0006  14.9371     0.0   41.9041
4911  4861.0  265.860     -0.9741  14.9636     0.0   42.0894
4921  4871.0  266.260     -0.9475  14.9902     0.0   42.2760
4931  4881.0  266.660     -0.9205  15.0172     0.0   42.4562
4941  4891.0  267.060     -0.8941  15.0436     0.0   42.6280
4951  4901.0  267.460     -0.8673  15.0703     0.0   42.8038
4961  4911.0  267.860     -0.8408  15.0969     0.0   42.9575
4971  4921.0  268.260     -0.8139  15.1238     0.0   43.1073
4981  4931.0  268.660     -0.7874  15.1503     0.0   43.2554
4991  4941.0  269.060     -0.7607  15.1769     0.0   43.4000
5001  4951.0  269.460     -0.7342  15.2035     0.0   43.5389
5011  4961.0  269.860     -0.7075  15.2302     0.0   43.6736
5021  4971.0  270.260     -0.6809  15.2568     0.0   43.7970
5031  4981.0  270.660     -0.6541  15.2836     0.0   43.9190
5041  4991.0  271.060     -0.6274  15.3103     0.0   44.0371
5051  5001.0  271.460     -0.6007  15.3370     0.0   44.1428
5061  5011.0  271.860     -0.5741  15.3635     0.0   44.2453
5071  5021.0  272.260     -0.5474  15.3903     0.0   44.3393
5081  5031.0  272.660     -0.5207  15.4170     0.0   44.4363
5091  5041.0  273.060     -0.4941  15.4436     0.0   44.5303
5101  5051.0  273.460     -0.4675  15.4702     0.0   44.6214
5111  5061.0  273.860     -0.4407  15.4969     0.0   44.7037
5121  5071.0  274.260     -0.4142  15.5235     0.0   44.7808
5131  5081.0  274.660     -0.3875  15.5502     0.0   44.8657
5141  5091.0  275.060     -0.3607  15.5770     0.0   44.9431
5151  5101.0  275.460     -0.3341  15.6036     0.0   45.0174
5161  5111.0  275.860     -0.3075  15.6302     0.0   45.0936
5171  5121.0  276.260     -0.2808  15.6569     0.0   45.1666
5181  5131.0  276.660     -0.2543  15.6834     0.0   45.2357
5191  5141.0  277.060     -0.2274  15.7102     0.0   45.3032
5201  5151.0  277.460     -0.2008  15.7369     0.0   45.3773
5211  5161.0  277.860     -0.1741  15.7635     0.0   45.4412
5221  5171.0  278.260     -0.1474  15.7902     0.0   45.5071
5231  5181.0  278.660     -0.1208  15.8168     0.0   45.5727
5241  5191.0  279.060     -0.0941  15.8436     0.0   45.6352
5251  5201.0  279.460     -0.0677  15.8700     0.0   45.6926
5261  5211.0  279.860     -0.0409  15.8968     0.0   45.7567
5271  5221.0  280.260     -0.0143  15.9234     0.0   45.8061
5281  5231.0  280.660      0.0125  15.9502     0.0   45.8570
5291  5241.0  281.060      0.0391  15.9768     0.0   45.9118
5301  5251.0  281.460      0.0658  16.0035     0.0   45.9603
5311  5261.0  281.860      0.0925  16.0302     0.0   46.0117
5321  5271.0  282.260      0.1190  16.0567     0.0   46.0555
5331  5281.0  282.660      0.1459  16.0835     0.0   46.0983
5341  5291.0  283.060      0.1723  16.1100     0.0   46.1487
5351  5301.0  283.460      0.1991  16.1367     0.0   46.1921
5361  5311.0  283.860      0.2260  16.1636     0.0   46.2330
5371  5321.0  284.260      0.2525  16.1902     0.0   46.2776
5381  5331.0  284.660      0.2791  16.2168     0.0   46.3166
5391  5341.0  285.060      0.3058  16.2435     0.0   46.3611
5401  5351.0  285.460      0.3325  16.2702     0.0   46.3976
5411  5361.0  285.860      0.3591  16.2968     0.0   46.4340
5421  5371.0  286.260      0.3859  16.3236     0.0   46.4648
5431  5381.0  286.660      0.4125  16.3501     0.0   46.4918
5441  5391.0  287.060      0.4392  16.3769     0.0   46.5279
5451  5401.0  287.460      0.4658  16.4034     0.0   46.5577
5461  5411.0  287.860      0.4925  16.4302     0.0   46.5915
5471  5421.0  288.260      0.5192  16.4569     0.0   46.6227
5481  5431.0  288.660      0.5457  16.4834     0.0   46.6471
5491  5441.0  289.060      0.5724  16.5100     0.0   46.6698
5501  5451.0  289.460      0.5993  16.5370     0.0   46.7041
5511  5461.0  289.860      0.6258  16.5635     0.0   46.7231
5521  5471.0  290.260      0.6524  16.5901     0.0   46.7383
5531  5481.0  290.660      0.6790  16.6167     0.0   46.7518
5541  5491.0  291.060      0.7059  16.6436     0.0   46.7664
5551  5501.0  291.460      0.7325  16.6701     0.0   46.7844
5561  5511.0  291.860      0.7592  16.6969     0.0   46.8014
5571  5521.0  292.260      0.7857  16.7234     0.0   46.7970
5581  5531.0  292.660      0.8124  16.7501     0.0   46.8016
5591  5541.0  293.060      0.8391  16.7768     0.0   46.8085
5601  5551.0  293.460      0.8658  16.8034     0.0   46.8161
5611  5561.0  293.860      0.8926  16.8303     0.0   46.8417
5621  5571.0  294.260      0.9192  16.8569     0.0   46.8459
5631  5581.0  294.660      0.9458  16.8835     0.0   46.8642
5641  5591.0  295.060      0.9725  16.9102     0.0   46.8836
5651  5601.0  295.460      0.9992  16.9369     0.0   46.8943
5661  5611.0  295.860      1.0259  16.9635     0.0   46.9192
5671  5621.0  296.260      1.0524  16.9901     0.0   46.9341
5681  5631.0  296.660      1.0792  17.0169     0.0   46.9517
5691  5641.0  297.060      1.1059  17.0436     0.0   46.9746
5701  5651.0  297.460      1.1324  17.0700     0.0   46.9869
5711  5661.0  297.860      1.1592  17.0968     0.0   47.0136
5721  5671.0  298.260      1.1857  17.1234     0.0   47.0420
5731  5681.0  298.660      1.2125  17.1502     0.0   47.0597
5741  5691.0  299.060      1.2392  17.1769     0.0   47.0912
5751  5701.0  299.460      1.2658  17.2035     0.0   47.1171
5761  5711.0  299.860      1.2924  17.2300     0.0   47.1380
5771  5721.0  300.260      1.3190  17.2566     0.0   47.1720
5781  5731.0  300.660      1.3457  17.2834     0.0   47.1965
5791  5741.0  301.060      1.3724  17.3101     0.0   47.2282
5801  5751.0  301.460      1.3991  17.3368     0.0   47.2566
5811  5761.0  301.860      1.4257  17.3634     0.0   47.2840
5821  5771.0  302.260      1.4523  17.3899     0.0   47.3161
5831  5781.0  302.660      1.4791  17.4167     0.0   47.3470
5841  5791.0  303.060      1.5058  17.4435     0.0   47.3805
5851  5801.0  303.460      1.5324  17.4700     0.0   47.4142
5861  5811.0  303.860      1.5592  17.4969     0.0   47.4466
5871  5821.0  304.260      1.5857  17.5233     0.0   47.4801
5881  5831.0  304.660      1.6124  17.5500     0.0   47.5132
5891  5841.0  305.060      1.6390  17.5767     0.0   47.5451
5901  5851.0  305.460      1.6657  17.6034     0.0   47.5782
5911  5861.0  305.860      1.6923  17.6300     0.0   47.6089
5921  5871.0  306.260      1.7191  17.6568     0.0   47.6510
5931  5881.0  306.660      1.7458  17.6835     0.0   47.6827
5941  5891.0  307.060      1.7724  17.7101     0.0   47.7169
5951  5901.0  307.460      1.7991  17.7368     0.0   47.7546
5961  5911.0  307.860      1.8258  17.7635     0.0   47.7891
5971  5921.0  308.260      1.8526  17.7903     0.0   47.8212
5981  5931.0  308.660      1.8791  17.8167     0.0   47.8568
5991  5941.0  309.060      1.9059  17.8436     0.0   47.8863
6001  5951.0  309.460      1.9323  17.8700     0.0   47.9201
6011  5961.0  309.860      1.9591  17.8967     0.0   47.9501
6021  5971.0  310.260      1.9857  17.9233     0.0   47.9791
6031  5981.0  310.660      2.0122  17.9499     0.0   48.0162
6041  5991.0  311.060      2.0394  17.9770     0.0   48.0441
6051  6001.0  311.460      2.0658  18.0035     0.0   48.0770
6061  6011.0  311.860      2.0923  18.0300     0.0   48.1063
6071  6021.0  312.260      2.1191  18.0567     0.0   48.1381
6081  6031.0  312.660      2.1456  18.0833     0.0   48.1696
6091  6041.0  313.060      2.1724  18.1101     0.0   48.1978
6101  6051.0  313.460      2.1992  18.1368     0.0   48.2320
6111  6061.0  313.860      2.2257  18.1634     0.0   48.2589
6121  6071.0  314.260      2.2526  18.1902     0.0   48.2939
6131  6081.0  314.660      2.2791  18.2168     0.0   48.3229
6141  6091.0  315.060      2.3057  18.2434     0.0   48.3509
6151  6101.0  315.460      2.3324  18.2701     0.0   48.3822
6161  6111.0  315.860      2.3591  18.2967     0.0   48.4153
6171  6121.0  316.260      2.3858  18.3235     0.0   48.4430
6181  6131.0  316.660      2.4126  18.3502     0.0   48.4744
6191  6141.0  317.060      2.4392  18.3769     0.0   48.5063
6201  6151.0  317.460      2.4657  18.4034     0.0   48.5332
6211  6161.0  317.860      2.4924  18.4301     0.0   48.5609
6221  6171.0  318.260      2.5190  18.4567     0.0   48.5934
6231  6181.0  318.660      2.5457  18.4834     0.0   48.6209
6241  6191.0  319.060      2.5725  18.5102     0.0   48.6483
6251  6201.0  319.460      2.5990  18.5367     0.0   48.6789
6261  6211.0  319.860      2.6257  18.5633     0.0   48.7041
6271  6221.0  320.260      2.6525  18.5902     0.0   48.7355
6281  6231.0  320.660      2.6792  18.6169     0.0   48.7640
6291  6241.0  321.060      2.7055  18.6432     0.0   48.7887
6301  6251.0  321.460      2.7326  18.6703     0.0   48.8168
6311  6261.0  321.860      2.7592  18.6969     0.0   48.8431
6321  6271.0  322.260      2.7857  18.7234     0.0   48.8749
6331  6281.0  322.660      2.8125  18.7501     0.0   48.9017
6341  6291.0  323.060      2.8390  18.7767     0.0   48.9309
6351  6301.0  323.460      2.8657  18.8034     0.0   48.9610
6361  6311.0  323.860      2.8922  18.8299     0.0   48.9824
6371  6321.0  324.260      2.9189  18.8566     0.0   49.0105
6381  6331.0  324.660      2.9457  18.8834     0.0   49.0360
6391  6341.0  325.060      2.9723  18.9100     0.0   49.0610
6401  6351.0  325.460      2.9991  18.9368     0.0   49.0905
6411  6361.0  325.860      3.0258  18.9635     0.0   49.1218
6421  6371.0  326.260      3.0525  18.9901     0.0   49.1459
6431  6381.0  326.660      3.0791  19.0167     0.0   49.1701
6441  6391.0  327.060      3.1057  19.0434     0.0   49.2001