           Num  Time(s)  PosAbs(mm)  Pos(mm)  Pos(%)  Load(kN)
0          1.0    0.005    -10.6527   0.0007     0.0    0.0922
10        11.0    2.005    -10.5197   0.1337     0.0    0.1462
20        21.0    4.005    -10.3865   0.2669     0.0    0.2043
30        31.0    6.005    -10.2535   0.3999     0.0    0.2668
40        41.0    8.005    -10.1198   0.5336     0.0    0.3323
50        51.0   10.005     -9.9865   0.6669     0.0    0.4064
60        61.0   12.005     -9.8531   0.8003     0.0    0.4894
70        71.0   14.005     -9.7202   0.9332     0.0    0.5934
80        81.0   16.005     -9.5870   1.0664     0.0    0.7127
90        91.0   18.005     -9.4539   1.1995     0.0    0.8463
100      101.0   20.005     -9.3201   1.3333     0.0    1.0030
110      111.0   22.005     -9.1871   1.4662     0.0    1.1807
120      121.0   24.005     -9.0536   1.5997     0.0    1.3726
130      131.0   26.005     -8.9204   1.7330     0.0    1.5923
140      141.0   28.005     -8.7869   1.8664     0.0    1.8249
150      151.0   30.005     -8.6534   2.0000     0.0    2.0902
160      161.0   32.005     -8.5202   2.1331     0.0    2.3810
170      171.0   34.005     -8.3872   2.2662     0.0    2.6860
180      181.0   36.005     -8.2539   2.3995     0.0    3.0041
190      191.0   38.005     -8.1203   2.5331     0.0    3.1258
200      201.0   40.005     -7.9877   2.6657     0.0    3.1907
210      211.0   42.005     -7.8535   2.7999     0.0    3.2222
220      221.0   44.005     -7.7205   2.9329     0.0    3.2331
230      231.0   46.005     -7.5874   3.0660     0.0    3.2423
240      241.0   48.005     -7.4539   3.1995     0.0    3.2530
250      251.0   50.005     -7.3205   3.3328     0.0    3.2548
260      261.0   52.005     -7.1874   3.4659     0.0    3.2644
270      271.0   54.005     -7.0538   3.5996     0.0    3.2763
280      281.0   56.005     -6.9203   3.7331     0.0    3.2923
290      291.0   58.005     -6.7874   3.8659     0.0    3.3334
300      301.0   60.005     -6.6541   3.9993     0.0    3.3861
310      311.0   62.005     -6.5207   4.1327     0.0    3.4461
320      321.0   64.005     -6.3878   4.2656     0.0    3.4770
330      331.0   66.005     -6.2535   4.3999     0.0    3.5527
340      341.0   68.005     -6.1207   4.5327     0.0    3.5925
350      351.0   70.005     -5.9871   4.6663     0.0    3.6632
360      361.0   72.005     -5.8537   4.7996     0.0    3.7374
370      371.0   74.005     -5.7206   4.9327     0.0    3.8278
380      381.0   76.005     -5.5874   5.0660     0.0    3.9008
390      391.0   78.005     -5.4536   5.1998     0.0    3.9882
406      401.0   78.550     -5.4515   5.2019     0.0    3.9141
416      411.0   78.950     -5.4516   5.2018     0.0    3.9078
426      421.0   79.350     -5.4516   5.2018     0.0    3.8998
436      431.0   79.750     -5.4516   5.2017     0.0    3.8967
446      441.0   80.150     -5.4518   5.2015     0.0    3.8866
456      451.0   80.550     -5.4517   5.2017     0.0    3.8839
466      461.0   80.950     -5.4515   5.2019     0.0    3.8783
476      471.0   81.350     -5.4514   5.2020     0.0    3.8717
486      481.0   81.750     -5.4517   5.2017     0.0    3.8689
496      491.0   82.150     -5.4515   5.2019     0.0    3.8573
506      501.0   82.550     -5.4512   5.2021     0.0    3.8557
516      511.0   82.950     -5.4510   5.2024     0.0    3.8519
526      521.0   83.350     -5.4514   5.2020     0.0    3.8419
536      531.0   83.750     -5.4511   5.2022     0.0    3.8422
546      541.0   84.150     -5.4510   5.2024     0.0    3.8392
556      551.0   84.550     -5.4515   5.2019     0.0    3.8352
566      561.0   84.950     -5.4512   5.2022     0.0    3.8300
576      571.0   85.350     -5.4512   5.2021     0.0    3.8298
586      581.0   85.750     -5.4512   5.2022     0.0    3.8234
596      591.0   86.150     -5.4512   5.2022     0.0    3.8193
606      601.0   86.550     -5.4512   5.2022     0.0    3.8152
616      611.0   86.950     -5.4509   5.2025     0.0    3.8131
626      621.0   87.350     -5.4510   5.2023     0.0    3.8075
636      631.0   87.750     -5.4513   5.2021     0.0    3.8034
646      641.0   88.150     -5.4510   5.2023     0.0    3.8036
656      651.0   88.550     -5.4510   5.2024     0.0    3.8003
666      661.0   88.950     -5.4510   5.2024     0.0    3.7963
676      671.0   89.350     -5.4508   5.2025     0.0    3.7939
686      681.0   89.750     -5.4509   5.2024     0.0    3.7870
696      691.0   90.150     -5.4509   5.2024     0.0    3.7859
706      701.0   90.550     -5.4507   5.2027     0.0    3.7804
716      711.0   90.950     -5.4510   5.2024     0.0    3.7767
726      721.0   91.350     -5.4509   5.2025     0.0    3.7796
736      731.0   91.750     -5.4510   5.2024     0.0    3.7746
746      741.0   92.150     -5.4505   5.2028     0.0    3.7739
756      751.0   92.550     -5.4507   5.2027     0.0    3.7678
766      761.0   92.950     -5.4513   5.2021     0.0    3.7672
776      771.0   93.350     -5.4509   5.2025     0.0    3.7595
786      781.0   93.750     -5.4507   5.2026     0.0    3.7645
797      791.0   94.150     -5.4508   5.2025     0.0    3.7584
807      801.0   94.550     -5.4508   5.2026     0.0    3.7523
817      811.0   94.950     -5.4507   5.2026     0.0    3.7554
827      821.0   95.350     -5.4508   5.2026     0.0    3.7536
837      831.0   95.750     -5.4509   5.2025     0.0    3.7499
847      841.0   96.150     -5.4508   5.2026     0.0    3.7489
857      851.0   96.550     -5.4508   5.2025     0.0    3.7467
867      861.0   96.950     -5.4506   5.2028     0.0    3.7432
877      871.0   97.350     -5.4509   5.2025     0.0    3.7428
887      881.0   97.750     -5.4508   5.2026     0.0    3.7417
897      891.0   98.150     -5.4509   5.2025     0.0    3.7372
907      901.0   98.550     -5.4508   5.2026     0.0    3.7310
917      911.0   98.950     -5.4510   5.2024     0.0    3.7332
927      921.0   99.350     -5.4507   5.2027     0.0    3.7300
937      931.0   99.750     -5.4508   5.2025     0.0    3.7269
947      941.0  100.150     -5.4507   5.2027     0.0    3.7262
957      951.0  100.550     -5.4508   5.2026     0.0    3.7244
967      961.0  100.950     -5.4506   5.2028     0.0    3.7195
977      971.0  101.350     -5.4504   5.2030     0.0    3.7167
987      981.0  101.750     -5.4507   5.2027     0.0    3.7191
997      991.0  102.150     -5.4504   5.2030     0.0    3.7154
1007    1001.0  102.550     -5.4505   5.2029     0.0    3.7189
1017    1011.0  102.950     -5.4509   5.2025     0.0    3.7176
1027    1021.0  103.350     -5.4508   5.2026     0.0    3.7159
1037    1031.0  103.750     -5.4505   5.2029     0.0    3.7125
1047    1041.0  104.150     -5.4506   5.2028     0.0    3.7096
1057    1051.0  104.550     -5.4505   5.2029     0.0    3.7133
1067    1061.0  104.950     -5.4505   5.2028     0.0    3.7062
1077    1071.0  105.350     -5.4505   5.2029     0.0    3.7025
1087    1081.0  105.750     -5.4508   5.2026     0.0    3.6964
1097    1091.0  106.150     -5.4505   5.2029     0.0    3.6984
1107    1101.0  106.550     -5.4503   5.2030     0.0    3.6954
1117    1111.0  106.950     -5.4505   5.2029     0.0    3.6913
1127    1121.0  107.350     -5.4509   5.2024     0.0    3.6963
1137    1131.0  107.750     -5.4505   5.2029     0.0    3.6902
1147    1141.0  108.150     -5.4506   5.2028     0.0    3.6925
1157    1151.0  108.550     -5.4505   5.2029     0.0    3.6865
1167    1161.0  108.950     -5.4506   5.2028     0.0    3.6827
1177    1171.0  109.350     -5.4506   5.2028     0.0    3.6819
1187    1181.0  109.750     -5.4505   5.2029     0.0    3.6840
1197    1191.0  110.150     -5.4505   5.2028     0.0    3.6784
1207    1201.0  110.550     -5.4503   5.2031     0.0    3.6756
1217    1211.0  110.950     -5.4505   5.2028     0.0    3.6739
1227    1221.0  111.350     -5.4509   5.2025     0.0    3.6742
1237    1231.0  111.750     -5.4506   5.2028     0.0    3.6735
1247    1241.0  112.150     -5.4506   5.2028     0.0    3.6724
1257    1251.0  112.550     -5.4508   5.2026     0.0    3.6706
1267    1261.0  112.950     -5.4507   5.2027     0.0    3.6712
1277    1271.0  113.350     -5.4506   5.2027     0.0    3.6633
1287    1281.0  113.750     -5.4504   5.2030     0.0    3.6648
1297    1291.0  114.150     -5.4505   5.2029     0.0    3.6624
1307    1301.0  114.550     -5.4504   5.2030     0.0    3.6617
1317    1311.0  114.950     -5.4505   5.2029     0.0    3.6570
1327    1321.0  115.350     -5.4508   5.2026     0.0    3.6595
1337    1331.0  115.750     -5.4503   5.2031     0.0    3.6564
1347    1341.0  116.150     -5.4505   5.2029     0.0    3.6511
1357    1351.0  116.550     -5.4507   5.2027     0.0    3.6530
1367    1361.0  116.950     -5.4505   5.2029     0.0    3.6505
1377    1371.0  117.350     -5.4505   5.2029     0.0    3.6478
1387    1381.0  117.750     -5.4505   5.2029     0.0    3.6504
1397    1391.0  118.150     -5.4503   5.2030     0.0    3.6488
1407    1401.0  118.550     -5.4509   5.2025     0.0    3.6486
1417    1411.0  118.950     -5.4506   5.2028     0.0    3.6464
1427    1421.0  119.350     -5.4507   5.2027     0.0    3.6469
1437    1431.0  119.750     -5.4506   5.2028     0.0    3.6469
1447    1441.0  120.150     -5.4505   5.2029     0.0    3.6446
1457    1451.0  120.550     -5.4504   5.2030     0.0    3.6437
1467    1461.0  120.950     -5.4506   5.2027     0.0    3.6407
1477    1471.0  121.350     -5.4506   5.2028     0.0    3.6415
1487    1481.0  121.750     -5.4507   5.2027     0.0    3.6353
1497    1491.0  122.150     -5.4506   5.2028     0.0    3.6357
1507    1501.0  122.550     -5.4506   5.2028     0.0    3.6382
1517    1511.0  122.950     -5.4504   5.2030     0.0    3.6331
1527    1521.0  123.350     -5.4507   5.2027     0.0    3.6311
1537    1531.0  123.750     -5.4506   5.2028     0.0    3.6277
1547    1541.0  124.150     -5.4505   5.2029     0.0    3.6341
1557    1551.0  124.550     -5.4504   5.2029     0.0    3.6306
1567    1561.0  124.950     -5.4504   5.2029     0.0    3.6299
1577    1571.0  125.350     -5.4506   5.2027     0.0    3.6274
1587    1581.0  125.750     -5.4507   5.2027     0.0    3.6263
1597    1591.0  126.150     -5.4506   5.2027     0.0    3.6239
1607    1601.0  126.550     -5.4504   5.2030     0.0    3.6286
1617    1611.0  126.950     -5.4509   5.2025     0.0    3.6249
1627    1621.0  127.350     -5.4505   5.2029     0.0    3.6223
1637    1631.0  127.750     -5.4504   5.2030     0.0    3.6222
1647    1641.0  128.150     -5.4508   5.2026     0.0    3.6181
1657    1651.0  128.550     -5.4505   5.2029     0.0    3.6198
1667    1661.0  128.950     -5.4506   5.2028     0.0    3.6196
1677    1671.0  129.350     -5.4506   5.2028     0.0    3.6203
1687    1681.0  129.750     -5.4506   5.2028     0.0    3.6164
1697    1691.0  130.150     -5.4505   5.2029     0.0    3.6134
1707    1701.0  130.550     -5.4503   5.2031     0.0    3.6130
1717    1711.0  130.950     -5.4506   5.2028     0.0    3.6088
1727    1721.0  131.350     -5.4507   5.2027     0.0    3.6087
1737    1731.0  131.750     -5.4504   5.2029     0.0    3.6083
1747    1741.0  132.150     -5.4508   5.2025     0.0    3.6047
1757    1751.0  132.550     -5.4505   5.2028     0.0    3.6052
1767    1761.0  132.950     -5.4505   5.2029     0.0    3.6064
1777    1771.0  133.350     -5.4501   5.2033     0.0    3.6035
1787    1781.0  133.750     -5.4506   5.2027     0.0    3.6008
1797    1791.0  134.150     -5.4505   5.2028     0.0    3.6060
1807    1801.0  134.550     -5.4507   5.2027     0.0    3.5987
1817    1811.0  134.950     -5.4506   5.2028     0.0    3.5964
1827    1821.0  135.350     -5.4505   5.2029     0.0    3.5975
1837    1831.0  135.750     -5.4507   5.2027     0.0    3.5978
1847    1841.0  136.150     -5.4505   5.2029     0.0    3.5980
1857    1851.0  136.550     -5.4507   5.2027     0.0    3.5960
1867    1861.0  136.950     -5.4506   5.2028     0.0    3.5960
1877    1871.0  137.350     -5.4506   5.2028     0.0    3.5926
1887    1881.0  137.750     -5.4507   5.2026     0.0    3.5918
1897    1891.0  138.150     -5.4505   5.2029     0.0    3.5966
1907    1901.0  138.550     -5.4506   5.2028     0.0    3.5934
1917    1911.0  138.950     -5.4506   5.2027     0.0    3.5898
1927    1921.0  139.350     -5.4508   5.2026     0.0    3.5913
1937    1931.0  139.750     -5.4507   5.2027     0.0    3.5900
1947    1941.0  140.150     -5.4507   5.2027     0.0    3.5894
1957    1951.0  140.550     -5.4506   5.2028     0.0    3.5845
1967    1961.0  140.950     -5.4507   5.2027     0.0    3.5870
1977    1971.0  141.350     -5.4505   5.2028     0.0    3.5875
1987    1981.0  141.750     -5.4507   5.2027     0.0    3.5842
1997    1991.0  142.150     -5.4506   5.2028     0.0    3.5823
2007    2001.0  142.550     -5.4507   5.2027     0.0    3.5862
2017    2011.0  142.950     -5.4508   5.2025     0.0    3.5822
2027    2021.0  143.350     -5.4504   5.2029     0.0    3.5816
2037    2031.0  143.750     -5.4505   5.2028     0.0    3.5777
2047    2041.0  144.150     -5.4506   5.2027     0.0    3.5786
2057    2051.0  144.550     -5.4507   5.2027     0.0    3.5801
2067    2061.0  144.950     -5.4506   5.2027     0.0    3.5781
2077    2071.0  145.350     -5.4505   5.2029     0.0    3.5757
2087    2081.0  145.750     -5.4504   5.2029     0.0    3.5765
2097    2091.0  146.150     -5.4507   5.2026     0.0    3.5729
2107    2101.0  146.550     -5.4505   5.2029     0.0    3.5736
2117    2111.0  146.950     -5.4504   5.2030     0.0    3.5748
2127    2121.0  147.350     -5.4508   5.2026     0.0    3.5713
2137    2131.0  147.750     -5.4504   5.2029     0.0    3.5722
2147    2141.0  148.150     -5.4508   5.2026     0.0    3.5704
2157    2151.0  148.550     -5.4502   5.2032     0.0    3.5667
2167    2161.0  148.950     -5.4503   5.2031     0.0    3.5657
2177    2171.0  149.350     -5.4507   5.2027     0.0    3.5652
2187    2181.0  149.750     -5.4505   5.2028     0.0    3.5627
2197    2191.0  150.150     -5.4504   5.2030     0.0    3.5609
2207    2201.0  150.550     -5.4504   5.2030     0.0    3.5643
2217    2211.0  150.950     -5.4505   5.2028     0.0    3.5652
2227    2221.0  151.350     -5.4508   5.2026     0.0    3.5638
2237    2231.0  151.750     -5.4504   5.2030     0.0    3.5617
2247    2241.0  152.150     -5.4504   5.2030     0.0    3.5615
2257    2251.0  152.550     -5.4507   5.2027     0.0    3.5575
2267    2261.0  152.950     -5.4506   5.2028     0.0    3.5602
2277    2271.0  153.350     -5.4507   5.2027     0.0    3.5586
2287    2281.0  153.750     -5.4504   5.2030     0.0    3.5537
2297    2291.0  154.150     -5.4509   5.2025     0.0    3.5590
2307    2301.0  154.550     -5.4507   5.2027     0.0    3.5522
2317    2311.0  154.950     -5.4506   5.2027     0.0    3.5549
2327    2321.0  155.350     -5.4506   5.2028     0.0    3.5525
2337    2331.0  155.750     -5.4504   5.2030     0.0    3.5555
2347    2341.0  156.150     -5.4505   5.2028     0.0    3.5550
2357    2351.0  156.550     -5.4504   5.2030     0.0    3.5549
2367    2361.0  156.950     -5.4507   5.2027     0.0    3.5499
2377    2371.0  157.350     -5.4504   5.2029     0.0    3.5489
2387    2381.0  157.750     -5.4508   5.2026     0.0    3.5446
2397    2391.0  158.150     -5.4505   5.2029     0.0    3.5475
2407    2401.0  158.550     -5.4504   5.2030     0.0    3.5553
2417    2411.0  158.950     -5.4507   5.2027     0.0    3.5499
2427    2421.0  159.350     -5.4505   5.2029     0.0    3.5480
2437    2431.0  159.750     -5.4506   5.2028     0.0    3.5494
2447    2441.0  160.150     -5.4505   5.2029     0.0    3.5481
2457    2451.0  160.550     -5.4506   5.2027     0.0    3.5475
2467    2461.0  160.950     -5.4506   5.2028     0.0    3.5439
2477    2471.0  161.350     -5.4503   5.2030     0.0    3.5467
2487    2481.0  161.750     -5.4504   5.2030     0.0    3.5470
2497    2491.0  162.150     -5.4506   5.2028     0.0    3.5488
2507    2501.0  162.550     -5.4503   5.2031     0.0    3.5482
2517    2511.0  162.950     -5.4504   5.2029     0.0    3.5479
2527    2521.0  163.350     -5.4503   5.2031     0.0    3.5459
2537    2531.0  163.750     -5.4503   5.2031     0.0    3.5454
2547    2541.0  164.150     -5.4503   5.2031     0.0    3.5417
2557    2551.0  164.550     -5.4503   5.2030     0.0    3.5438
2567    2561.0  164.950     -5.4502   5.2031     0.0    3.5442
2577    2571.0  165.350     -5.4502   5.2032     0.0    3.5384
2587    2581.0  165.750     -5.4503   5.2031     0.0    3.5404
2597    2591.0  166.150     -5.4502   5.2031     0.0    3.5393
2607    2601.0  166.550     -5.4505   5.2029     0.0    3.5377
2624    2611.0  167.045     -5.4374   5.2160     0.0    3.6502
2634    2621.0  167.445     -5.4106   5.2428     0.0    3.8569
2644    2631.0  167.845     -5.3839   5.2695     0.0    3.9942
2654    2641.0  168.245     -5.3572   5.2962     0.0    4.0802
2664    2651.0  168.645     -5.3309   5.3225     0.0    4.1797
2674    2661.0  169.045     -5.3042   5.3492     0.0    4.2901
2684    2671.0  169.445     -5.2773   5.3761     0.0    4.4048
2694    2681.0  169.845     -5.2509   5.4025     0.0    4.5213
2704    2691.0  170.245     -5.2238   5.4296     0.0    4.6337
2714    2701.0  170.645     -5.1976   5.4558     0.0    4.7368
2724    2711.0  171.045     -5.1708   5.4825     0.0    4.8230
2734    2721.0  171.445     -5.1443   5.5091     0.0    4.9088
2744    2731.0  171.845     -5.1176   5.5357     0.0    4.9980
2754    2741.0  172.245     -5.0909   5.5625     0.0    5.0824
2764    2751.0  172.645     -5.0645   5.5889     0.0    5.1658
2774    2761.0  173.045     -5.0375   5.6159     0.0    5.2533
2784    2771.0  173.445     -5.0110   5.6424     0.0    5.3267
2794    2781.0  173.845     -4.9842   5.6692     0.0    5.3921
2804    2791.0  174.245     -4.9577   5.6957     0.0    5.4597
2814    2801.0  174.645     -4.9311   5.7223     0.0    5.5194
2824    2811.0  175.045     -4.9040   5.7494     0.0    5.5877
2834    2821.0  175.445     -4.8776   5.7758     0.0    5.6588
2844    2831.0  175.845     -4.8507   5.8027     0.0    5.7367
2854    2841.0  176.245     -4.8242   5.8292     0.0    5.8092
2864    2851.0  176.645     -4.7975   5.8559     0.0    5.8761
2874    2861.0  177.045     -4.7708   5.8826     0.0    5.9382
2884    2871.0  177.445     -4.7444   5.9090     0.0    5.9979
2894    2881.0  177.845     -4.7174   5.9360     0.0    6.0648
2904    2891.0  178.245     -4.6908   5.9626     0.0    6.1333
2914    2901.0  178.645     -4.6642   5.9892     0.0    6.2027
2924    2911.0  179.045     -4.6378   6.0156     0.0    6.2734
2934    2921.0  179.445     -4.6110   6.0423     0.0    6.3420
2944    2931.0  179.845     -4.5842   6.0692     0.0    6.4339
2954    2941.0  180.245     -4.5577   6.0957     0.0    6.5297
2964    2951.0  180.645     -4.5308   6.1226     0.0    6.6250
2974    2961.0  181.045     -4.5041   6.1493     0.0    6.7193
2984    2971.0  181.445     -4.4775   6.1758     0.0    6.8181
2994    2981.0  181.845     -4.4509   6.2025     0.0    6.9218
3004    2991.0  182.245     -4.4241   6.2292     0.0    7.0151
3014    3001.0  182.645     -4.3976   6.2558     0.0    7.1072
3024    3011.0  183.045     -4.3710   6.2824     0.0    7.1998
3034    3021.0  183.445     -4.3444   6.3090     0.0    7.2995
3044    3031.0  183.845     -4.3177   6.3357     0.0    7.4064
3054    3041.0  184.245     -4.2908   6.3626     0.0    7.5504
3064    3051.0  184.645     -4.2647   6.3887     0.0    7.7049
3074    3061.0  185.045     -4.2375   6.4158     0.0    7.8610
3084    3071.0  185.444     -4.2109   6.4424     0.0    8.0055
3100    3081.0  185.855     -4.2167   6.4366     0.0    7.8435
3110    3091.0  186.255     -4.2169   6.4365     0.0    7.7932
3120    3101.0  186.655     -4.2167   6.4367     0.0    7.7588
3130    3111.0  187.055     -4.2165   6.4368     0.0    7.7249
3140    3121.0  187.455     -4.2168   6.4365     0.0    7.6919
3150    3131.0  187.855     -4.2164   6.4370     0.0    7.6674
3160    3141.0  188.255     -4.2167   6.4366     0.0    7.6452
3170    3151.0  188.655     -4.2165   6.4369     0.0    7.6231
3180    3161.0  189.055     -4.2164   6.4370     0.0    7.6086
3190    3171.0  189.455     -4.2167   6.4367     0.0    7.5865
3200    3181.0  189.855     -4.2165   6.4369     0.0    7.5689
3210    3191.0  190.255     -4.2163   6.4371     0.0    7.5554
3220    3201.0  190.655     -4.2165   6.4369     0.0    7.5414
3230    3211.0  191.055     -4.2168   6.4366     0.0    7.5278
3240    3221.0  191.455     -4.2164   6.4369     0.0    7.5117
3250    3231.0  191.855     -4.2163   6.4371     0.0    7.5004
3260    3241.0  192.255     -4.2165   6.4369     0.0    7.4891
3270    3251.0  192.655     -4.2165   6.4369     0.0    7.4726
3280    3261.0  193.055     -4.2164   6.4370     0.0    7.4600
3290    3271.0  193.455     -4.2165   6.4369     0.0    7.4551
3300    3281.0  193.855     -4.2163   6.4371     0.0    7.4410
3310    3291.0  194.255     -4.2166   6.4368     0.0    7.4284
3320    3301.0  194.655     -4.2165   6.4369     0.0    7.4182
3330    3311.0  195.055     -4.2165   6.4369     0.0    7.4094
3340    3321.0  195.455     -4.2163   6.4371     0.0    7.4017
3350    3331.0  195.855     -4.2163   6.4371     0.0    7.3889
3360    3341.0  196.255     -4.2162   6.4372     0.0    7.3824
3370    3351.0  196.655     -4.2164   6.4370     0.0    7.3754
3381    3361.0  197.055     -4.2168   6.4366     0.0    7.3701
3391    3371.0  197.455     -4.2164   6.4370     0.0    7.3562
3401    3381.0  197.855     -4.2164   6.4370     0.0    7.3544
3411    3391.0  198.255     -4.2161   6.4373     0.0    7.3434
3421    3401.0  198.655     -4.2163   6.4371     0.0    7.3407
3431    3411.0  199.055     -4.2161   6.4373     0.0    7.3399
3441    3421.0  199.455     -4.2164   6.4370     0.0    7.3304
3451    3431.0  199.855     -4.2162   6.4371     0.0    7.3187
3461    3441.0  200.255     -4.2161   6.4373     0.0    7.3184
3471    3451.0  200.655     -4.2162   6.4372     0.0    7.3062
3481    3461.0  201.055     -4.2161   6.4372     0.0    7.3068
3491    3471.0  201.455     -4.2161   6.4373     0.0    7.2966
3501    3481.0  201.855     -4.2163   6.4371     0.0    7.2954
3511    3491.0  202.255     -4.2161   6.4373     0.0    7.2819
3521    3501.0  202.655     -4.2162   6.4371     0.0    7.2756
3531    3511.0  203.055     -4.2165   6.4369     0.0    7.2626
3541    3521.0  203.455     -4.2162   6.4372     0.0    7.2600
3551    3531.0  203.855     -4.2164   6.4370     0.0    7.2537
3561    3541.0  204.255     -4.2162   6.4372     0.0    7.2485
3571    3551.0  204.655     -4.2161   6.4373     0.0    7.2422
3581    3561.0  205.055     -4.2162   6.4372     0.0    7.2384
3591    3571.0  205.455     -4.2161   6.4372     0.0    7.2311
3601    3581.0  205.855     -4.2161   6.4373     0.0    7.2277
3611    3591.0  206.255     -4.2161   6.4373     0.0    7.2199
3621    3601.0  206.655     -4.2162   6.4372     0.0    7.2162
3631    3611.0  207.055     -4.2163   6.4371     0.0    7.2099
3641    3621.0  207.455     -4.2163   6.4371     0.0    7.2059
3651    3631.0  207.855     -4.2165   6.4369     0.0    7.2019
3661    3641.0  208.255     -4.2164   6.4370     0.0    7.1975
3671    3651.0  208.655     -4.2161   6.4373     0.0    7.1963
3681    3661.0  209.055     -4.2163   6.4370     0.0    7.1920
3691    3671.0  209.455     -4.2163   6.4370     0.0    7.1822
3701    3681.0  209.855     -4.2160   6.4374     0.0    7.1827
3711    3691.0  210.255     -4.2164   6.4370     0.0    7.1762
3721    3701.0  210.655     -4.2163   6.4371     0.0    7.1678
3731    3711.0  211.055     -4.2162   6.4371     0.0    7.1647
3741    3721.0  211.455     -4.2164   6.4370     0.0    7.1617
3751    3731.0  211.855     -4.2164   6.4370     0.0    7.1638
3761    3741.0  212.255     -4.2164   6.4370     0.0    7.1543
3771    3751.0  212.655     -4.2165   6.4369     0.0    7.1562
3781    3761.0  213.055     -4.2161   6.4372     0.0    7.1521
3791    3771.0  213.455     -4.2164   6.4370     0.0    7.1454
3801    3781.0  213.855     -4.2164   6.4370     0.0    7.1402
3811    3791.0  214.255     -4.2164   6.4370     0.0    7.1419
3821    3801.0  214.655     -4.2163   6.4370     0.0    7.1357
3831    3811.0  215.055     -4.2164   6.4370     0.0    7.1297
3841    3821.0  215.455     -4.2163   6.4370     0.0    7.1250
3851    3831.0  215.855     -4.2162   6.4372     0.0    7.1229
3861    3841.0  216.255     -4.2163   6.4371     0.0    7.1183
3871    3851.0  216.655     -4.2164   6.4370     0.0    7.1243
3881    3861.0  217.055     -4.2162   6.4372     0.0    7.1156
3891    3871.0  217.455     -4.2163   6.4371     0.0    7.1183
3901    3881.0  217.855     -4.2162   6.4372     0.0    7.1124
3911    3891.0  218.255     -4.2163   6.4371     0.0    7.1081
3921    3901.0  218.655     -4.2163   6.4370     0.0    7.1084
3931    3911.0  219.055     -4.2162   6.4371     0.0    7.1045
3941    3921.0  219.455     -4.2166   6.4368     0.0    7.0983
3951    3931.0  219.855     -4.2166   6.4368     0.0    7.0970
3961    3941.0  220.255     -4.2165   6.4368     0.0    7.0944
3971    3951.0  220.655     -4.2165   6.4369     0.0    7.0924
3981    3961.0  221.055     -4.2163   6.4371     0.0    7.0867
3991    3971.0  221.455     -4.2163   6.4371     0.0    7.0860
4001    3981.0  221.855     -4.2164   6.4370     0.0    7.0824
4011    3991.0  222.255     -4.2165   6.4369     0.0    7.0759
4021    4001.0  222.655     -4.2163   6.4371     0.0    7.0739
4031    4011.0  223.055     -4.2164   6.4369     0.0    7.0699
4041    4021.0  223.455     -4.2165   6.4369     0.0    7.0621
4051    4031.0  223.855     -4.2163   6.4371     0.0    7.0611
4061    4041.0  224.255     -4.2164   6.4370     0.0    7.0587
4071    4051.0  224.655     -4.2163   6.4371     0.0    7.0584
4081    4061.0  225.055     -4.2165   6.4369     0.0    7.0555
4091    4071.0  225.455     -4.2163   6.4371     0.0    7.0537
4101    4081.0  225.855     -4.2165   6.4369     0.0    7.0466
4111    4091.0  226.255     -4.2164   6.4370     0.0    7.0514
4121    4101.0  226.655     -4.2165   6.4369     0.0    7.0429
4131    4111.0  227.055     -4.2162   6.4371     0.0    7.0412
4141    4121.0  227.455     -4.2164   6.4369     0.0    7.0396
4151    4131.0  227.855     -4.2163   6.4370     0.0    7.0350
4161    4141.0  228.255     -4.2164   6.4370     0.0    7.0284
4171    4151.0  228.655     -4.2164   6.4370     0.0    7.0273
4181    4161.0  229.055     -4.2164   6.4370     0.0    7.0273
4191    4171.0  229.455     -4.2163   6.4370     0.0    7.0204
4201    4181.0  229.855     -4.2164   6.4370     0.0    7.0210
4211    4191.0  230.255     -4.2163   6.4371     0.0    7.0186
4221    4201.0  230.655     -4.2164   6.4369     0.0    7.0157
4231    4211.0  231.055     -4.2164   6.4370     0.0    7.0157
4241    4221.0  231.455     -4.2163   6.4371     0.0    7.0075
4251    4231.0  231.855     -4.2165   6.4368     0.0    7.0087
4261    4241.0  232.255     -4.2163   6.4370     0.0    7.0055
4271    4251.0  232.655     -4.2166   6.4368     0.0    7.0035
4281    4261.0  233.055     -4.2164   6.4370     0.0    7.0004
4291    4271.0  233.455     -4.2164   6.4370     0.0    6.9994
4301    4281.0  233.855     -4.2162   6.4372     0.0    6.9966
4311    4291.0  234.255     -4.2165   6.4369     0.0    6.9975
4321    4301.0  234.655     -4.2165   6.4368     0.0    6.9955
4331    4311.0  235.055     -4.2165   6.4369     0.0    6.9917
4341    4321.0  235.455     -4.2164   6.4370     0.0    6.9914
4351    4331.0  235.855     -4.2163   6.4371     0.0    6.9878
4361    4341.0  236.255     -4.2164   6.4370     0.0    6.9880
4371    4351.0  236.655     -4.2162   6.4372     0.0    6.9864
4381    4361.0  237.055     -4.2161   6.4372     0.0    6.9862
4391    4371.0  237.455     -4.2167   6.4367     0.0    6.9813
4401    4381.0  237.855     -4.2164   6.4370     0.0    6.9805
4411    4391.0  238.255     -4.2163   6.4371     0.0    6.9756
4421    4401.0  238.655     -4.2165   6.4369     0.0    6.9773
4431    4411.0  239.055     -4.2166   6.4368     0.0    6.9700
4441    4421.0  239.455     -4.2164   6.4370     0.0    6.9729
4451    4431.0  239.855     -4.2162   6.4372     0.0    6.9711
4461    4441.0  240.255     -4.2162   6.4372     0.0    6.9673
4471    4451.0  240.655     -4.2163   6.4371     0.0    6.9659
4481    4461.0  241.055     -4.2161   6.4373     0.0    6.9658
4491    4471.0  241.455     -4.2162   6.4371     0.0    6.9598
4501    4481.0  241.855     -4.2163   6.4371     0.0    6.9628
4511    4491.0  242.255     -4.2165   6.4369     0.0    6.9625
4521    4501.0  242.655     -4.2165   6.4369     0.0    6.9581
4531    4511.0  243.055     -4.2163   6.4370     0.0    6.9599
4541    4521.0  243.455     -4.2161   6.4373     0.0    6.9550
4551    4531.0  243.855     -4.2163   6.4371     0.0    6.9466
4561    4541.0  244.255     -4.2161   6.4373     0.0    6.9519
4571    4551.0  244.655     -4.2163   6.4370     0.0    6.9449
4581    4561.0  245.055     -4.2163   6.4371     0.0    6.9441
4598    4571.0  245.510     -4.2165   6.4369     0.0    6.9405
4608    4581.0  245.910     -4.1897   6.4636     0.0    7.2980
4618    4591.0  246.310     -4.1636   6.4898     0.0    7.6066
4628    4601.0  246.710     -4.1368   6.5166     0.0    7.8825
4638    4611.0  247.110     -4.1099   6.5435     0.0    8.1427
4648    4621.0  247.510     -4.0834   6.5700     0.0    8.3513
4658    4631.0  247.910     -4.0568   6.5966     0.0    8.5483
4668    4641.0  248.310     -4.0302   6.6231     0.0    8.7437
4678    4651.0  248.710     -4.0034   6.6500     0.0    8.9400
4688    4661.0  249.110     -3.9768   6.6766     0.0    9.1352
4698    4671.0  249.510     -3.9501   6.7033     0.0    9.3239
4708    4681.0  249.910     -3.9235   6.7299     0.0    9.5247
4718    4691.0  250.310     -3.8968   6.7566     0.0    9.7223
4728    4701.0  250.710     -3.8702   6.7832     0.0    9.9246
4738    4711.0  251.110     -3.8434   6.8099     0.0   10.1361
4748    4721.0  251.510     -3.8166   6.8368     0.0   10.3544
4758    4731.0  251.910     -3.7901   6.8633     0.0   10.5766
4768    4741.0  252.310     -3.7634   6.8900     0.0   10.7930
4778    4751.0  252.710     -3.7368   6.9166     0.0   11.0319
4788    4761.0  253.110     -3.7107   6.9427     0.0   11.2568
4798    4771.0  253.510     -3.6835   6.9699     0.0   11.5048
4808    4781.0  253.910     -3.6568   6.9965     0.0   11.7428
4818    4791.0  254.310     -3.6302   7.0232     0.0   11.9869
4834    4801.0  254.710     -3.6328   7.0205     0.0   11.8062
4844    4811.0  255.110     -3.6330   7.0204     0.0   11.7362
4854    4821.0  255.510     -3.6329   7.0205     0.0   11.6719
4864    4831.0  255.910     -3.6327   7.0207     0.0   11.6246
4874    4841.0  256.310     -3.6328   7.0206     0.0   11.5774
4884    4851.0  256.710     -3.6328   7.0206     0.0   11.5401
4894    4861.0  257.110     -3.6328   7.0206     0.0   11.5074
4904    4871.0  257.510     -3.6329   7.0205     0.0   11.4747
4914    4881.0  257.910     -3.6327   7.0207     0.0   11.4445
4924    4891.0  258.310     -3.6327   7.0207     0.0   11.4159
4934    4901.0  258.710     -3.6328   7.0206     0.0   11.3974
4944    4911.0  259.110     -3.6326   7.0208     0.0   11.3723
4954    4921.0  259.510     -3.6326   7.0208     0.0   11.3502
4964    4931.0  259.910     -3.6327   7.0206     0.0   11.3279
4974    4941.0  260.310     -3.6327   7.0207     0.0   11.3135
4984    4951.0  260.710     -3.6326   7.0208     0.0   11.2878
4994    4961.0  261.110     -3.6324   7.0210     0.0   11.2737
5004    4971.0  261.510     -3.6326   7.0208     0.0   11.2567
5014    4981.0  261.910     -3.6327   7.0207     0.0   11.2426
5024    4991.0  262.310     -3.6327   7.0207     0.0   11.2255
5034    5001.0  262.710     -3.6324   7.0209     0.0   11.2110
5044    5011.0  263.110     -3.6326   7.0208     0.0   11.1948
5054    5021.0  263.510     -3.6326   7.0207     0.0   11.1746
5064    5031.0  263.910     -3.6326   7.0208     0.0   11.1657
5074    5041.0  264.310     -3.6327   7.0207     0.0   11.1538
5084    5051.0  264.710     -3.6327   7.0207     0.0   11.1432
5094    5061.0  265.110     -3.6325   7.0209     0.0   11.1304
5104    5071.0  265.510     -3.6325   7.0209     0.0   11.1157
5114    5081.0  265.910     -3.6325   7.0209     0.0   11.1081
5124    5091.0  266.310     -3.6326   7.0207     0.0   11.1121
5134    5101.0  266.710     -3.6326   7.0208     0.0   11.0914
5144    5111.0  267.110     -3.6326   7.0208     0.0   11.1064
5154    5121.0  267.510     -3.6327   7.0207     0.0   11.0632
5164    5131.0  267.910     -3.6324   7.0209     0.0   11.0680
5174    5141.0  268.310     -3.6326   7.0207     0.0   11.0308
5184    5151.0  268.710     -3.6325   7.0209     0.0   11.0069
5194    5161.0  269.110     -3.6327   7.0207     0.0   11.0073
5204    5171.0  269.510     -3.6326   7.0208     0.0   10.9946
5214    5181.0  269.910     -3.6326   7.0208     0.0   10.9834
5224    5191.0  270.310     -3.6325   7.0209     0.0   10.9768
5234    5201.0  270.710     -3.6326   7.0208     0.0   10.9669
5244    5211.0  271.110     -3.6326   7.0208     0.0   10.9616
5254    5221.0  271.510     -3.6328   7.0206     0.0   10.9680
5264    5231.0  271.910     -3.6324   7.0210     0.0   10.9740
5275    5241.0  272.310     -3.6324   7.0210     0.0   10.9594
5285    5251.0  272.710     -3.6324   7.0210     0.0   10.9616
5295    5261.0  273.110     -3.6324   7.0210     0.0   10.9492
5305    5271.0  273.510     -3.6325   7.0208     0.0   10.9390
5315    5281.0  273.910     -3.6327   7.0207     0.0   10.9315
5325    5291.0  274.310     -3.6324   7.0210     0.0   10.9102
5335    5301.0  274.710     -3.6326   7.0208     0.0   10.8902
5345    5311.0  275.110     -3.6324   7.0210     0.0   10.8943
5355    5321.0  275.510     -3.6328   7.0206     0.0   10.8901
5365    5331.0  275.910     -3.6326   7.0208     0.0   10.8866
5375    5341.0  276.310     -3.6324   7.0210     0.0   10.8614
5385    5351.0  276.710     -3.6325   7.0209     0.0   10.8567
5395    5361.0  277.110     -3.6323   7.0211     0.0   10.8614
5405    5371.0  277.510     -3.6327   7.0207     0.0   10.8340
5415    5381.0  277.910     -3.6326   7.0208     0.0   10.8126
5425    5391.0  278.310     -3.6328   7.0206     0.0   10.8289
5435    5401.0  278.710     -3.6325   7.0208     0.0   10.8120
5445    5411.0  279.110     -3.6325   7.0209     0.0   10.7830
5455    5421.0  279.510     -3.6326   7.0208     0.0   10.7813
5465    5431.0  279.910     -3.6326   7.0208     0.0   10.7789
5475    5441.0  280.310     -3.6327   7.0207     0.0   10.7727
5485    5451.0  280.710     -3.6325   7.0208     0.0   10.7679
5495    5461.0  281.110     -3.6326   7.0207     0.0   10.7609
5505    5471.0  281.510     -3.6325   7.0209     0.0   10.7501
5515    5481.0  281.910     -3.6325   7.0209     0.0   10.7470
5525    5491.0  282.310     -3.6327   7.0207     0.0   10.7404
5535    5501.0  282.710     -3.6324   7.0209     0.0   10.7402
5545    5511.0  283.110     -3.6325   7.0209     0.0   10.7355
5555    5521.0  283.510     -3.6325   7.0209     0.0   10.7459
5565    5531.0  283.910     -3.6327   7.0207     0.0   10.7134
5575    5541.0  284.310     -3.6325   7.0209     0.0   10.7294
5585    5551.0  284.710     -3.6326   7.0208     0.0   10.7142
5595    5561.0  285.110     -3.6326   7.0208     0.0   10.7171
5605    5571.0  285.510     -3.6326   7.0208     0.0   10.7324
5615    5581.0  285.910     -3.6324   7.0210     0.0   10.6951
5625    5591.0  286.310     -3.6326   7.0208     0.0   10.6853
5635    5601.0  286.710     -3.6324   7.0210     0.0   10.7037
5645    5611.0  287.110     -3.6325   7.0209     0.0   10.6744
5655    5621.0  287.510     -3.6327   7.0207     0.0   10.6889
5665    5631.0  287.910     -3.6324   7.0209     0.0   10.6668
5675    5641.0  288.310     -3.6327   7.0206     0.0   10.6688
5685    5651.0  288.710     -3.6326   7.0207     0.0   10.6660
5695    5661.0  289.110     -3.6325   7.0209     0.0   10.6586
5705    5671.0  289.510     -3.6325   7.0209     0.0   10.6589
5715    5681.0  289.910     -3.6325   7.0208     0.0   10.6541
5725    5691.0  290.310     -3.6324   7.0210     0.0   10.6494
5735    5701.0  290.710     -3.6326   7.0207     0.0   10.6469
5745    5711.0  291.110     -3.6328   7.0206     0.0   10.6377
5755    5721.0  291.510     -3.6326   7.0208     0.0   10.6306
5765    5731.0  291.910     -3.6325   7.0209     0.0   10.6321
5775    5741.0  292.310     -3.6324   7.0210     0.0   10.6269
5785    5751.0  292.710     -3.6326   7.0208     0.0   10.6257
5795    5761.0  293.110     -3.6327   7.0207     0.0   10.6194
5805    5771.0  293.510     -3.6326   7.0208     0.0   10.6118
5815    5781.0  293.910     -3.6325   7.0208     0.0   10.6115
5825    5791.0  294.310     -3.6326   7.0208     0.0   10.6079
5835    5801.0  294.710     -3.6327   7.0207     0.0   10.6028
5845    5811.0  295.110     -3.6328   7.0206     0.0   10.5977
5855    5821.0  295.510     -3.6324   7.0210     0.0   10.5958
5865    5831.0  295.910     -3.6325   7.0208     0.0   10.5945
5875    5841.0  296.310     -3.6324   7.0210     0.0   10.5897
5885    5851.0  296.710     -3.6326   7.0208     0.0   10.5838
5895    5861.0  297.110     -3.6327   7.0207     0.0   10.5819
5905    5871.0  297.510     -3.6327   7.0207     0.0   10.5790
5915    5881.0  297.910     -3.6326   7.0208     0.0   10.5704
5925    5891.0  298.310     -3.6326   7.0208     0.0   10.5702
5935    5901.0  298.710     -3.6327   7.0206     0.0   10.5633
5945    5911.0  299.110     -3.6327   7.0207     0.0   10.5623
5955    5921.0  299.510     -3.6326   7.0207     0.0   10.5595
5965    5931.0  299.910     -3.6326   7.0207     0.0   10.5557
5975    5941.0  300.310     -3.6327   7.0207     0.0   10.5515
5985    5951.0  300.710     -3.6328   7.0206     0.0   10.5534
5995    5961.0  301.110     -3.6325   7.0209     0.0   10.5473
6005    5971.0  301.510     -3.6326   7.0208     0.0   10.5435
6015    5981.0  301.910     -3.6327   7.0207     0.0   10.5348
6025    5991.0  302.310     -3.6326   7.0207     0.0   10.5356
6035    6001.0  302.710     -3.6327   7.0206     0.0   10.5301
6045    6011.0  303.110     -3.6326   7.0208     0.0   10.5283
6055    6021.0  303.510     -3.6326   7.0207     0.0   10.5220
6065    6031.0  303.910     -3.6327   7.0207     0.0   10.5220
6075    6041.0  304.310     -3.6325   7.0209     0.0   10.5151
6085    6051.0  304.710     -3.6328   7.0206     0.0   10.5155
6095    6061.0  305.110     -3.6326   7.0208     0.0   10.5077
6105    6071.0  305.510     -3.6326   7.0208     0.0   10.5062
6115    6081.0  305.910     -3.6326   7.0208     0.0   10.5045
6125    6091.0  306.310     -3.6327   7.0206     0.0   10.4985
6135    6101.0  306.710     -3.6327   7.0207     0.0   10.4971
6145    6111.0  307.110     -3.6325   7.0208     0.0   10.4938
6155    6121.0  307.510     -3.6324   7.0209     0.0   10.4939
6165    6131.0  307.910     -3.6328   7.0206     0.0   10.4899
6175    6141.0  308.310     -3.6326   7.0208     0.0   10.4909
6185    6151.0  308.710     -3.6324   7.0210     0.0   10.4876
6195    6161.0  309.110     -3.6327   7.0207     0.0   10.4858
6205    6171.0  309.510     -3.6325   7.0209     0.0   10.4812
6215    6181.0  309.910     -3.6326   7.0208     0.0   10.4771
6225    6191.0  310.310     -3.6325   7.0209     0.0   10.4673
6235    6201.0  310.710     -3.6326   7.0207     0.0   10.4683
6245    6211.0  311.110     -3.6325   7.0209     0.0   10.4678
6255    6221.0  311.510     -3.6325   7.0209     0.0   10.4703
6265    6231.0  311.910     -3.6326   7.0207     0.0   10.4669
6275    6241.0  312.310     -3.6326   7.0208     0.0   10.4581
6285    6251.0  312.710     -3.6325   7.0209     0.0   10.4577
6295    6261.0  313.110     -3.6327   7.0207     0.0   10.4547
6305    6271.0  313.510     -3.6326   7.0208     0.0   10.4500
6315    6281.0  313.910     -3.6326   7.0208     0.0   10.4482
6325    6291.0  314.310     -3.6327   7.0207     0.0   10.4488
6335    6301.0  314.710     -3.6327   7.0207     0.0   10.4459
6345    6311.0  315.110     -3.6328   7.0206     0.0   10.4427
6362    6321.0  315.555     -3.6326   7.0208     0.0   10.4426
6372    6331.0  315.955     -3.6062   7.0472     0.0   10.9175
6382    6341.0  316.355     -3.5800   7.0734     0.0   11.3587
6392    6351.0  316.755     -3.5532   7.1002     0.0   11.7756
6402    6361.0  317.155     -3.5263   7.1271     0.0   12.1688
6412    6371.0  317.555     -3.4998   7.1536     0.0   12.5384
6422    6381.0  317.955     -3.4733   7.1801     0.0   12.8841
6432    6391.0  318.355     -3.4468   7.2066     0.0   13.2284
6442    6401.0  318.755     -3.4199   7.2335     0.0   13.5822
6452    6411.0  319.155     -3.3932   7.2602     0.0   13.9200
6462    6421.0  319.555     -3.3668   7.2866     0.0   14.2662
6472    6431.0  319.955     -3.3399   7.3135     0.0   14.6010
6482    6441.0  320.355     -3.3133   7.3400     0.0   14.9445
6492    6451.0  320.755     -3.2865   7.3668     0.0   15.2847
6502    6461.0  321.155     -3.2602   7.3932     0.0   15.6197
6512    6471.0  321.555     -3.2331   7.4203     0.0   15.9648
6528    6481.0  321.960     -3.2349   7.4185     0.0   15.7829
6538    6491.0  322.360     -3.2348   7.4186     0.0   15.7054
6548    6501.0  322.760     -3.2348   7.4186     0.0   15.6418
6558    6511.0  323.160     -3.2348   7.4186     0.0   15.5816
6568    6521.0  323.560     -3.2347   7.4186     0.0   15.5337
6578    6531.0  323.960     -3.2346   7.4188     0.0   15.4908
6588    6541.0  324.360     -3.2346   7.4188     0.0   15.4554
6598    6551.0  324.760     -3.2348   7.4186     0.0   15.4157
6608    6561.0  325.160     -3.2348   7.4186     0.0   15.3812
6618    6571.0  325.560     -3.2344   7.4190     0.0   15.3570
6628    6581.0  325.960     -3.2346   7.4187     0.0   15.3231
6638    6591.0  326.360     -3.2345   7.4188     0.0   15.3064
6648    6601.0  326.760     -3.2344   7.4190     0.0   15.2770
6658    6611.0  327.160     -3.2347   7.4187     0.0   15.2516
6668    6621.0  327.560     -3.2345   7.4189     0.0   15.2274
6678    6631.0  327.960     -3.2347   7.4187     0.0   15.2127
6688    6641.0  328.360     -3.2348   7.4186     0.0   15.1945
6698    6651.0  328.760     -3.2344   7.4189     0.0   15.1682
6708    6661.0  329.160     -3.2348   7.4186     0.0   15.1463
6718    6671.0  329.560     -3.2347   7.4187     0.0   15.1284
6728    6681.0  329.960     -3.2347   7.4187     0.0   15.1126
6738    6691.0  330.360     -3.2344   7.4190     0.0   15.1002
6748    6701.0  330.760     -3.2346   7.4188     0.0   15.0756
6758    6711.0  331.160     -3.2346   7.4187     0.0   15.0590
6768    6721.0  331.560     -3.2345   7.4189     0.0   15.0474
6778    6731.0  331.960     -3.2344   7.4190     0.0   15.0348
6788    6741.0  332.360     -3.2346   7.4188     0.0   15.0157
6798    6751.0  332.760     -3.2345   7.4188     0.0   14.9998
6808    6761.0  333.160     -3.2346   7.4188     0.0   14.9900
6818    6771.0  333.560     -3.2345   7.4188     0.0   14.9764
6828    6781.0  333.960     -3.2344   7.4190     0.0   14.9631
6838    6791.0  334.360     -3.2346   7.4187     0.0   14.9491
6848    6801.0  334.760     -3.2346   7.4188     0.0   14.9399
6858    6811.0  335.160     -3.2345   7.4189     0.0   14.9258
6868    6821.0  335.560     -3.2346   7.4188     0.0   14.9098
6878    6831.0  335.960     -3.2346   7.4188     0.0   14.9016
6888    6841.0  336.360     -3.2346   7.4188     0.0   14.8945
6898    6851.0  336.760     -3.2343   7.4190     0.0   14.8823
6908    6861.0  337.160     -3.2345   7.4189     0.0   14.8660
6918    6871.0  337.560     -3.2345   7.4189     0.0   14.8586
6928    6881.0  337.960     -3.2344   7.4190     0.0   14.8489
6938    6891.0  338.360     -3.2345   7.4189     0.0   14.8517
6948    6901.0  338.760     -3.2344   7.4190     0.0   14.8418
6958    6911.0  339.160     -3.2345   7.4189     0.0   14.8514
6968    6921.0  339.560     -3.2347   7.4187     0.0   14.8123
6978    6931.0  339.960     -3.2345   7.4188     0.0   14.7824
6988    6941.0  340.360     -3.2343   7.4191     0.0   14.7880
6998    6951.0  340.760     -3.2345   7.4188     0.0   14.7786
7008    6961.0  341.160     -3.2343   7.4191     0.0   14.7730
7018    6971.0  341.560     -3.2346   7.4187     0.0   14.7561
7028    6981.0  341.960     -3.2344   7.4190     0.0   14.7529
7038    6991.0  342.360     -3.2343   7.4190     0.0   14.7450
7048    7001.0  342.760     -3.2345   7.4188     0.0   14.7388
7058    7011.0  343.160     -3.2344   7.4190     0.0   14.7271
7068    7021.0  343.560     -3.2346   7.4188     0.0   14.7153
7078    7031.0  343.960     -3.2342   7.4192     0.0   14.7061
7088    7041.0  344.360     -3.2345   7.4188     0.0   14.7002
7098    7051.0  344.760     -3.2346   7.4188     0.0   14.6950
7108    7061.0  345.160     -3.2344   7.4190     0.0   14.6880
7118    7071.0  345.560     -3.2345   7.4189     0.0   14.6751
7128    7081.0  345.960     -3.2345   7.4189     0.0   14.6680
7138    7091.0  346.360     -3.2345   7.4189     0.0   14.6597
7148    7101.0  346.760     -3.2344   7.4190     0.0   14.6542
7158    7111.0  347.160     -3.2346   7.4188     0.0   14.6455
7168    7121.0  347.560     -3.2344   7.4190     0.0   14.6433
7178    7131.0  347.960     -3.2345   7.4189     0.0   14.6322
7189    7141.0  348.360     -3.2344   7.4190     0.0   14.6274
7199    7151.0  348.760     -3.2345   7.4188     0.0   14.6194
7209    7161.0  349.160     -3.2345   7.4189     0.0   14.6107
7219    7171.0  349.560     -3.2348   7.4186     0.0   14.6066
7229    7181.0  349.960     -3.2345   7.4189     0.0   14.5905
7239    7191.0  350.360     -3.2347   7.4187     0.0   14.5913
7249    7201.0  350.760     -3.2345   7.4189     0.0   14.5846
7259    7211.0  351.160     -3.2346   7.4188     0.0   14.6014
7269    7221.0  351.560     -3.2347   7.4187     0.0   14.5751
7279    7231.0  351.960     -3.2345   7.4189     0.0   14.5691
7289    7241.0  352.360     -3.2344   7.4189     0.0   14.5596
7299    7251.0  352.760     -3.2344   7.4190     0.0   14.5514
7309    7261.0  353.160     -3.2345   7.4188     0.0   14.5453
7319    7271.0  353.560     -3.2346   7.4188     0.0   14.5396
7329    7281.0  353.960     -3.2345   7.4189     0.0   14.5381
7339    7291.0  354.360     -3.2346   7.4188     0.0   14.5236
7349    7301.0  354.760     -3.2345   7.4189     0.0   14.5197
7359    7311.0  355.160     -3.2347   7.4187     0.0   14.5131
7369    7321.0  355.560     -3.2345   7.4189     0.0   14.4991
7379    7331.0  355.960     -3.2344   7.4190     0.0   14.4985
7389    7341.0  356.360     -3.2345   7.4188     0.0   14.4942
7399    7351.0  356.760     -3.2346   7.4188     0.0   14.4937
7409    7361.0  357.160     -3.2346   7.4188     0.0   14.4855
7419    7371.0  357.560     -3.2346   7.4188     0.0   14.4804
7429    7381.0  357.960     -3.2345   7.4188     0.0   14.4773
7439    7391.0  358.360     -3.2344   7.4190     0.0   14.4753
7449    7401.0  358.760     -3.2344   7.4190     0.0   14.4671
7459    7411.0  359.160     -3.2346   7.4188     0.0   14.4571
7469    7421.0  359.560     -3.2346   7.4188     0.0   14.4585
7479    7431.0  359.960     -3.2345   7.4189     0.0   14.4540
7489    7441.0  360.360     -3.2344   7.4189     0.0   14.4496
7499    7451.0  360.760     -3.2346   7.4188     0.0   14.4442
7509    7461.0  361.160     -3.2345   7.4189     0.0   14.4424
7519    7471.0  361.560     -3.2346   7.4188     0.0   14.4307
7529    7481.0  361.960     -3.2347   7.4187     0.0   14.4290
7539    7491.0  362.360     -3.2350   7.4184     0.0   14.4262
7549    7501.0  362.760     -3.2346   7.4188     0.0   14.4202
7559    7511.0  363.160     -3.2344   7.4190     0.0   14.4151
7569    7521.0  363.560     -3.2347   7.4187     0.0   14.4139
7579    7531.0  363.960     -3.2347   7.4187     0.0   14.4097
7589    7541.0  364.360     -3.2344   7.4189     0.0   14.4039
7599    7551.0  364.760     -3.2347   7.4187     0.0   14.3951
7609    7561.0  365.160     -3.2347   7.4187     0.0   14.3969
7619    7571.0  365.560     -3.2345   7.4189     0.0   14.3864
7629    7581.0  365.960     -3.2345   7.4189     0.0   14.3883
7639    7591.0  366.360     -3.2346   7.4188     0.0   14.3829
7649    7601.0  366.760     -3.2346   7.4188     0.0   14.3783
7659    7611.0  367.160     -3.2347   7.4187     0.0   14.3683
7669    7621.0  367.560     -3.2345   7.4189     0.0   14.3612
7679    7631.0  367.960     -3.2346   7.4188     0.0   14.3619
7689    7641.0  368.360     -3.2346   7.4188     0.0   14.3552
7699    7651.0  368.760     -3.2346   7.4188     0.0   14.3509
7709    7661.0  369.160     -3.2346   7.4188     0.0   14.3446
7719    7671.0  369.560     -3.2345   7.4189     0.0   14.3454
7729    7681.0  369.960     -3.2345   7.4188     0.0   14.3413
7739    7691.0  370.360     -3.2347   7.4187     0.0   14.3400
7749    7701.0  370.760     -3.2345   7.4189     0.0   14.3353
7759    7711.0  371.160     -3.2345   7.4189     0.0   14.3308
7769    7721.0  371.560     -3.2346   7.4188     0.0   14.3252
7779    7731.0  371.960     -3.2346   7.4188     0.0   14.3244
7789    7741.0  372.360     -3.2345   7.4189     0.0   14.3185
7799    7751.0  372.760     -3.2348   7.4186     0.0   14.3150
7809    7761.0  373.160     -3.2347   7.4187     0.0   14.3094
7819    7771.0  373.560     -3.2347   7.4187     0.0   14.3025
7829    7781.0  373.960     -3.2346   7.4188     0.0   14.3011
7839    7791.0  374.360     -3.2346   7.4188     0.0   14.2963
7849    7801.0  374.760     -3.2345   7.4189     0.0   14.2881
7859    7811.0  375.160     -3.2348   7.4186     0.0   14.2875
7869    7821.0  375.560     -3.2346   7.4188     0.0   14.2815
7879    7831.0  375.960     -3.2347   7.4187     0.0   14.2801
7889    7841.0  376.360     -3.2346   7.4188     0.0   14.2764
7899    7851.0  376.760     -3.2346   7.4188     0.0   14.2664
7909    7861.0  377.160     -3.2347   7.4187     0.0   14.2720
7919    7871.0  377.560     -3.2348   7.4185     0.0   14.2684
7929    7881.0  377.960     -3.2350   7.4184     0.0   14.2609
7939    7891.0  378.360     -3.2348   7.4186     0.0   14.2604
7949    7901.0  378.760     -3.2346   7.4188     0.0   14.2742
7959    7911.0  379.160     -3.2346   7.4188     0.0   14.2822
7969    7921.0  379.560     -3.2347   7.4187     0.0   14.2776
7979    7931.0  379.960     -3.2348   7.4186     0.0   14.2561
7989    7941.0  380.360     -3.2346   7.4188     0.0   14.2577
7999    7951.0  380.760     -3.2348   7.4186     0.0   14.2603
8009    7961.0  381.160     -3.2348   7.4186     0.0   14.2605
8019    7971.0  381.560     -3.2347   7.4186     0.0   14.2570
8029    7981.0  381.960     -3.2347   7.4187     0.0   14.2500
8039    7991.0  382.360     -3.2349   7.4185     0.0   14.2466
8049    8001.0  382.760     -3.2346   7.4187     0.0   14.2454
8059    8011.0  383.160     -3.2350   7.4184     0.0   14.2324
8069    8021.0  383.560     -3.2347   7.4187     0.0   14.2170
8079    8031.0  383.960     -3.2347   7.4187     0.0   14.2176
8089    8041.0  384.360     -3.2348   7.4185     0.0   14.2043
8099    8051.0  384.760     -3.2347   7.4187     0.0   14.2220
8109    8061.0  385.160     -3.2348   7.4186     0.0   14.2021
8119    8071.0  385.560     -3.2347   7.4187     0.0   14.1974
8129    8081.0  385.960     -3.2348   7.4185     0.0   14.1931
8139    8091.0  386.360     -3.2348   7.4186     0.0   14.1894
8149    8101.0  386.760     -3.2349   7.4185     0.0   14.1826
8159    8111.0  387.160     -3.2347   7.4187     0.0   14.1835
8169    8121.0  387.560     -3.2350   7.4184     0.0   14.1744
8179    8131.0  387.960     -3.2348   7.4186     0.0   14.1726
8189    8141.0  388.360     -3.2349   7.4185     0.0   14.1710
8199    8151.0  388.760     -3.2348   7.4186     0.0   14.1718
8209    8161.0  389.160     -3.2348   7.4186     0.0   14.1640
8225    8171.0  389.655     -3.2330   7.4204     0.0   14.2086
8235    8181.0  390.055     -3.2056   7.4478     0.0   14.7958
8245    8191.0  390.455     -3.1793   7.4741     0.0   15.3274
8255    8201.0  390.855     -3.1523   7.5011     0.0   15.8283
8265    8211.0  391.255     -3.1259   7.5275     0.0   16.3017
8275    8221.0  391.655     -3.0994   7.5540     0.0   16.7500
8285    8231.0  392.055     -3.0727   7.5807     0.0   17.1913
8295    8241.0  392.455     -3.0458   7.6076     0.0   17.6208
8305    8251.0  392.855     -3.0194   7.6339     0.0   18.0328
8315    8261.0  393.255     -2.9927   7.6607     0.0   18.4460
8325    8271.0  393.655     -2.9662   7.6872     0.0   18.8478
8335    8281.0  394.055     -2.9394   7.7140     0.0   19.2433
8345    8291.0  394.455     -2.9129   7.7405     0.0   19.6314
8355    8301.0  394.855     -2.8862   7.7671     0.0   19.9780
8365    8311.0  395.255     -2.8595   7.7938     0.0   20.2944
8375    8321.0  395.655     -2.8330   7.8204     0.0   20.5440
8385    8331.0  396.055     -2.8064   7.8470     0.0   20.8440
8395    8341.0  396.455     -2.7796   7.8738     0.0   21.1063
8405    8351.0  396.855     -2.7530   7.9004     0.0   21.3531
8415    8361.0  397.255     -2.7263   7.9271     0.0   21.6031
8425    8371.0  397.655     -2.6997   7.9537     0.0   21.8303
8435    8381.0  398.055     -2.6730   7.9803     0.0   22.0745
8445    8391.0  398.455     -2.6462   8.0072     0.0   22.3212
8455    8401.0  398.855     -2.6196   8.0338     0.0   22.5741
8465    8411.0  399.255     -2.5931   8.0603     0.0   22.8246
8475    8421.0  399.655     -2.5664   8.0870     0.0   23.0897
8485    8431.0  400.055     -2.5396   8.1137     0.0   23.3523
8495    8441.0  400.455     -2.5131   8.1402     0.0   23.6317
8505    8451.0  400.855     -2.4863   8.1670     0.0   23.9214
8515    8461.0  401.255     -2.4598   8.1936     0.0   24.2160
8525    8471.0  401.655     -2.4332   8.2202     0.0   24.5058
8535    8481.0  402.055     -2.4064   8.2470     0.0   24.7952
8545    8491.0  402.455     -2.3798   8.2736     0.0   25.0838
8555    8501.0  402.855     -2.3532   8.3002     0.0   25.3775
8565    8511.0  403.255     -2.3264   8.3269     0.0   25.6714
8575    8521.0  403.655     -2.2998   8.3536     0.0   25.9671
8585    8531.0  404.055     -2.2733   8.3800     0.0   26.2653
8595    8541.0  404.455     -2.2466   8.4068     0.0   26.5617
8605    8551.0  404.855     -2.2198   8.4335     0.0   26.8573
8615    8561.0  405.255     -2.1933   8.4601     0.0   27.1430
8625    8571.0  405.655     -2.1667   8.4867     0.0   27.4292
8635    8581.0  406.055     -2.1401   8.5133     0.0   27.7200
8645    8591.0  406.455     -2.1133   8.5401     0.0   28.0006
8655    8601.0  406.855     -2.0866   8.5667     0.0   28.2763
8665    8611.0  407.255     -2.0601   8.5933     0.0   28.5456
8675    8621.0  407.655     -2.0332   8.6202     0.0   28.6412
8685    8631.0  408.055     -2.0067   8.6466     0.0   28.6631
8695    8641.0  408.455     -1.9801   8.6733     0.0   28.6683
8705    8651.0  408.855     -1.9534   8.6999     0.0   28.8052
8715    8661.0  409.255     -1.9266   8.7268     0.0   28.9971
8725    8671.0  409.655     -1.9001   8.7532     0.0   29.2389
8735    8681.0  410.055     -1.8733   8.7801     0.0   29.4962
8745    8691.0  410.455     -1.8468   8.8066     0.0   29.7634
8755    8701.0  410.855     -1.8201   8.8333     0.0   30.0313
8765    8711.0  411.255     -1.7933   8.8601     0.0   30.3059
8775    8721.0  411.655     -1.7668   8.8866     0.0   30.5801
8785    8731.0  412.055     -1.7400   8.9134     0.0   30.8544
8795    8741.0  412.455     -1.7135   8.9399     0.0   31.1266
8805    8751.0  412.855     -1.6869   8.9665     0.0   31.3927
8815    8761.0  413.255     -1.6601   8.9933     0.0   31.6619
8825    8771.0  413.655     -1.6336   9.0198     0.0   31.9249
8835    8781.0  414.055     -1.6069   9.0465     0.0   32.1673
8845    8791.0  414.455     -1.5802   9.0731     0.0   32.4129
8855    8801.0  414.855     -1.5535   9.0999     0.0   32.6698
8865    8811.0  415.255     -1.5268   9.1266     0.0   32.9145
8875    8821.0  415.655     -1.5003   9.1530     0.0   33.1269
8885    8831.0  416.055     -1.4736   9.1798     0.0   33.3097
8895    8841.0  416.455     -1.4470   9.2063     0.0   33.4345
8905    8851.0  416.855     -1.4203   9.2331     0.0   33.6378
8915    8861.0  417.255     -1.3936   9.2597     0.0   33.8767
8925    8871.0  417.655     -1.3670   9.2864     0.0   34.1032
8935    8881.0  418.055     -1.3402   9.3132     0.0   34.3380
8945    8891.0  418.455     -1.3135   9.3399     0.0   34.5711
8955    8901.0  418.855     -1.2868   9.3666     0.0   34.8089
8965    8911.0  419.255     -1.2602   9.3932     0.0   35.0536
8975    8921.0  419.655     -1.2335   9.4199     0.0   35.2968
8985    8931.0  420.055     -1.2070   9.4464     0.0   35.5442
8995    8941.0  420.455     -1.1803   9.4731     0.0   35.7890
9005    8951.0  420.855     -1.1535   9.4999     0.0   36.0252
9015    8961.0  421.255     -1.1271   9.5263     0.0   36.2580
9025    8971.0  421.655     -1.1003   9.5531     0.0   36.4783
9035    8981.0  422.055     -1.0737   9.5797     0.0   36.6970
9045    8991.0  422.455     -1.0470   9.6064     0.0   36.9233
9055    9001.0  422.855     -1.0205   9.6329     0.0   37.1404
9065    9011.0  423.255     -0.9937   9.6596     0.0   37.3580
9075    9021.0  423.655     -0.9670   9.6864     0.0   37.5724
9085    9031.0  424.055     -0.9405   9.7129     0.0   37.7830
9095    9041.0  424.455     -0.9137   9.7397     0.0   38.0003
9105    9051.0  424.855     -0.8871   9.7663     0.0   38.2086
9115    9061.0  425.255     -0.8604   9.7930     0.0   38.4211
9125    9071.0  425.655     -0.8338   9.8196     0.0   38.6279
9135    9081.0  426.055     -0.8071   9.8463     0.0   38.8275
9145    9091.0  426.455     -0.7805   9.8729     0.0   39.0233
9155    9101.0  426.855     -0.7539   9.8995     0.0   39.2035
9165    9111.0  427.255     -0.7271   9.9263     0.0   39.3790
9175    9121.0  427.655     -0.7005   9.9529     0.0   39.5539
9185    9131.0  428.055     -0.6738   9.9795     0.0   39.7274
9195    9141.0  428.455     -0.6473  10.0061     0.0   39.8942
9205    9151.0  428.855     -0.6205  10.0329     0.0   40.0597
9215    9161.0  429.255     -0.5938  10.0596     0.0   40.2216
9225    9171.0  429.655     -0.5671  10.0863     0.0   40.3821
9235    9181.0  430.055     -0.5404  10.1130     0.0   40.5346
9245    9191.0  430.455     -0.5139  10.1394     0.0   40.6812
9255    9201.0  430.855     -0.4871  10.1663     0.0   40.8321
9265    9211.0  431.255     -0.4606  10.1928     0.0   40.9738
9275    9221.0  431.655     -0.4340  10.2194     0.0   41.1141
9285    9231.0  432.055     -0.4071  10.2463     0.0   41.2476
9295    9241.0  432.455     -0.3806  10.2728     0.0   41.3793
9305    9251.0  432.855     -0.3539  10.2994     0.0   41.5017
9315    9261.0  433.255     -0.3272  10.3262     0.0   41.6274
9325    9271.0  433.655     -0.3005  10.3529     0.0   41.7441
9335    9281.0  434.055     -0.2738  10.3795     0.0   41.8633
9345    9291.0  434.455     -0.2473  10.4061     0.0   41.9687
9355    9301.0  434.855     -0.2205  10.4328     0.0   42.0744
9365    9311.0  435.255     -0.1940  10.4594     0.0   42.1797
9375    9321.0  435.655     -0.1672  10.4862     0.0   42.2834
9385    9331.0  436.055     -0.1406  10.5128     0.0   42.3813
9395    9341.0  436.455     -0.1138  10.5396     0.0   42.4826
9405    9351.0  436.855     -0.0873  10.5661     0.0   42.5757
9415    9361.0  437.255     -0.0606  10.5928     0.0   42.6717
9425    9371.0  437.655     -0.0339  10.6195     0.0   42.7638
9435    9381.0  438.055     -0.0074  10.6460     0.0   42.8548
9445    9391.0  438.455      0.0194  10.6727     0.0   42.9451
9455    9401.0  438.855      0.0462  10.6995     0.0   43.0320
9465    9411.0  439.255      0.0727  10.7261     0.0   43.1254
9475    9421.0  439.655      0.0993  10.7527     0.0   43.2109
9485    9431.0  440.055      0.1259  10.7793     0.0   43.2926
9495    9441.0  440.455      0.1526  10.8060     0.0   43.3768
9505    9451.0  440.855      0.1797  10.8331     0.0   43.4618
9515    9461.0  441.255      0.2060  10.8594     0.0   43.5399
9525    9471.0  441.655      0.2329  10.8863     0.0   43.6237
9535    9481.0  442.055      0.2594  10.9128     0.0   43.6976
9545    9491.0  442.455      0.2861  10.9395     0.0   43.7708
9555    9501.0  442.855      0.3126  10.9659     0.0   43.8508
9565    9511.0  443.255      0.3394  10.9927     0.0   43.9248
9575    9521.0  443.655      0.3661  11.0194     0.0   44.0031
9585    9531.0  444.055      0.3927  11.0460     0.0   44.0769
9595    9541.0  444.455      0.4193  11.0727     0.0   44.1472
9605    9551.0  444.855      0.4461  11.0994     0.0   44.2169
9615    9561.0  445.255      0.4727  11.1261     0.0   44.2899
9625    9571.0  445.655      0.4994  11.1528     0.0   44.3550
9635    9581.0  446.055      0.5261  11.1795     0.0   44.4226
9645    9591.0  446.455      0.5527  11.2061     0.0   44.4845
9655    9601.0  446.855      0.5793  11.2327     0.0   44.5518
9665    9611.0  447.255      0.6060  11.2594     0.0   44.6159
9675    9621.0  447.655      0.6326  11.2860     0.0   44.6780
9685    9631.0  448.055      0.6592  11.3125     0.0   44.7358
9695    9641.0  448.455      0.6859  11.3393     0.0   44.7990
9705    9651.0  448.855      0.7126  11.3660     0.0   44.8576
9715    9661.0  449.255      0.7392  11.3926     0.0   44.9121
9725    9671.0  449.655      0.7658  11.4192     0.0   44.9702
9735    9681.0  450.055      0.7926  11.4460     0.0   45.0271
9745    9691.0  450.455      0.8193  11.4727     0.0   45.0819
9755    9701.0  450.855      0.8460  11.4994     0.0   45.1324
9765    9711.0  451.255      0.8725  11.5259     0.0   45.1884
9775    9721.0  451.655      0.8992  11.5526     0.0   45.2425
9785    9731.0  452.055      0.9260  11.5793     0.0   45.2918
9795    9741.0  452.455      0.9525  11.6059     0.0   45.3396
9805    9751.0  452.855      0.9791  11.6325     0.0   45.3879
9815    9761.0  453.255      1.0059  11.6592     0.0   45.4348
9825    9771.0  453.655      1.0325  11.6859     0.0   45.4820
9835    9781.0  454.055      1.0592  11.7126     0.0   45.5298
9845    9791.0  454.455      1.0859  11.7393     0.0   45.5761
9855    9801.0  454.855      1.1126  11.7660     0.0   45.6217
9865    9811.0  455.255      1.1393  11.7926     0.0   45.6688
9875    9821.0  455.655      1.1658  11.8192     0.0   45.7086
9885    9831.0  456.055      1.1924  11.8458     0.0   45.7550
9895    9841.0  456.455      1.2192  11.8726     0.0   45.7942
9905    9851.0  456.855      1.2459  11.8993     0.0   45.8357
9915    9861.0  457.255      1.2727  11.9261     0.0   45.8790
9925    9871.0  457.655      1.2991  11.9525     0.0   45.9166
9935    9881.0  458.055      1.3257  11.9790     0.0   45.9548
9945    9891.0  458.455      1.3525  12.0059     0.0   45.9917
9955    9901.0  458.855      1.3793  12.0326     0.0   46.0299
9965    9911.0  459.255      1.4059  12.0593     0.0   46.0664
9975    9921.0  459.655      1.4326  12.0859     0.0   46.1054
9985    9931.0  460.055      1.4593  12.1127     0.0   46.1428
9995    9941.0  460.455      1.4859  12.1392     0.0   46.1763
10005   9951.0  460.855      1.5125  12.1659     0.0   46.2193
10015   9961.0  461.255      1.5393  12.1927     0.0   46.2523
10025   9971.0  461.655      1.5659  12.2193     0.0   46.2936
10035   9981.0  462.055      1.5924  12.2458     0.0   46.3209
10045   9991.0  462.455      1.6193  12.2727     0.0   46.3559
10055  10001.0  462.855      1.6458  12.2992     0.0   46.3860
10065  10011.0  463.255      1.6727  12.3261     0.0   46.4157
10075  10021.0  463.655      1.6991  12.3525     0.0   46.4350
10085  10031.0  464.055      1.7258  12.3792     0.0   46.4616
10095  10041.0  464.455      1.7526  12.4059     0.0   46.4933
10105  10051.0  464.855      1.7793  12.4326     0.0   46.5234
10115  10061.0  465.255      1.8059  12.4593     0.0   46.5538
10125  10071.0  465.655      1.8325  12.4858     0.0   46.5882
10135  10081.0  466.055      1.8593  12.5127     0.0   46.6210
10145  10091.0  466.455      1.8858  12.5392     0.0   46.6489
10155  10101.0  466.855      1.9125  12.5659     0.0   46.6799
10165  10111.0  467.255      1.9392  12.5926     0.0   46.7147
10175  10121.0  467.655      1.9658  12.6192     0.0   46.7440
10185  10131.0  468.055      1.9925  12.6459     0.0   46.7771
10195  10141.0  468.455      2.0192  12.6725     0.0   46.8148
10205  10151.0  468.855      2.0459  12.6993     0.0   46.8513
10215  10161.0  469.255      2.0725  12.7259     0.0   46.8833
10225  10171.0  469.655      2.0991  12.7525     0.0   46.9114
10235  10181.0  470.055      2.1259  12.7793     0.0   46.9447
10245  10191.0  470.455      2.1526  12.8060     0.0   46.9768
10255  10201.0  470.855      2.1789  12.8323     0.0   47.0128
10265  10211.0  471.255      2.2057  12.8591     0.0   47.0470
10275  10221.0  471.655      2.2324  12.8858     0.0   47.0799
10285  10231.0  472.055      2.2589  12.9122     0.0   47.1159
10295  10241.0  472.455      2.2858  12.9392     0.0   47.1540
10305  10251.0  472.855      2.3122  12.9656     0.0   47.1859
10315  10261.0  473.255      2.3392  12.9926     0.0   47.2233
10325  10271.0  473.655      2.3657  13.0190     0.0   47.2592
10335  10281.0  474.055      2.3926  13.0460     0.0   47.2942
10345  10291.0  474.455      2.4191  13.0725     0.0   47.3276
10355  10301.0  474.855      2.4455  13.0988     0.0   47.3556
10365  10311.0  475.255      2.4725  13.1259     0.0   47.3943
10375  10321.0  475.655      2.4991  13.1525     0.0   47.4284
10385  10331.0  476.055      2.5259  13.1792     0.0   47.4614
10395  10341.0  476.455      2.5525  13.2059     0.0   47.4927
10405  10351.0  476.855      2.5791  13.2325     0.0   47.5224
10415  10361.0  477.255      2.6059  13.2592     0.0   47.5574
10425  10371.0  477.655      2.6326  13.2859     0.0   47.5938
10435  10381.0  478.055      2.6591  13.3125     0.0   47.6174
10445  10391.0  478.455      2.6859  13.3393     0.0   47.6551
10455  10401.0  478.855      2.7124  13.3658     0.0   47.6859
10465  10411.0  479.255      2.7392  13.3926     0.0   47.7159
10475  10421.0  479.655      2.7656  13.4190     0.0   47.7455
10485  10431.0  480.055      2.7924  13.4457     0.0   47.7790
10495  10441.0  480.455      2.8189  13.4723     0.0   47.8075
10505  10451.0  480.855      2.8457  13.4991     0.0   47.8378
10515  10461.0  481.255      2.8725  13.5259     0.0   47.8695
10525  10471.0  481.655      2.8994  13.5527     0.0   47.9074
10535  10481.0  482.055      2.9258  13.5792     0.0   47.9365
10545  10491.0  482.455      2.9526  13.6060     0.0   47.9674
10555  10501.0  482.855      2.9791  13.6325     0.0   47.9967
10565  10511.0  483.255      3.0060  13.6594     0.0   48.0262
10575  10521.0  483.655      3.0324  13.6858     0.0   48.0550
10585  10531.0  484.055      3.0592  13.7126     0.0   48.0881
10595  10541.0  484.455      3.0859  13.7393     0.0   48.1150
10605  10551.0  484.855      3.1126  13.7660     0.0   48.1565
10615  10561.0  485.255      3.1393  13.7927     0.0   48.1878
10625  10571.0  485.655      3.1657  13.8191     0.0   48.2150
10635  10581.0  486.055      3.1927  13.8461     0.0   48.2471
10645  10591.0  486.455      3.2192  13.8726     0.0   48.2743
10655  10601.0  486.855      3.2456  13.8990     0.0   48.3057
10665  10611.0  487.255      3.2726  13.9259     0.0   48.3422
10675  10621.0  487.655      3.2992  13.9526     0.0   48.3714
10685  10631.0  488.055      3.3258  13.9792     0.0   48.3965
10695  10641.0  488.455      3.3526  14.0060     0.0   48.4318
10705  10651.0  488.855      3.3790  14.0324     0.0   48.4575
10715  10661.0  489.255      3.4060  14.0594     0.0   48.4969
10725  10671.0  489.655      3.4327  14.0861     0.0   48.5223
10735  10681.0  490.055      3.4591  14.1125     0.0   48.5510
10745  10691.0  490.455      3.4857  14.1390     0.0   48.5748
10755  10701.0  490.855      3.5124  14.1658     0.0   48.6089
10765  10711.0  491.255      3.5393  14.1927     0.0   48.6370
10775  10721.0  491.655      3.5658  14.2192     0.0   48.6633
10785  10731.0  492.055      3.5926  14.2459     0.0   48.6930
10795  10741.0  492.455      3.6192  14.2726     0.0   48.7226
10805  10751.0  492.855      3.6459  14.2993     0.0   48.7512
10815  10761.0  493.255      3.6724  14.3258     0.0   48.7747
10825  10771.0  493.655      3.6994  14.3528     0.0   48.8038
10835  10781.0  494.055      3.7261  14.3795     0.0   48.8339
10845  10791.0  494.455      3.7526  14.4059     0.0   48.8597
10855  10801.0  494.855      3.7792  14.4326     0.0   48.8917
10865  10811.0  495.255      3.8059  14.4593     0.0   48.9124
10875  10821.0  495.655      3.8327  14.4861     0.0   48.9434
10885  10831.0  496.055      3.8591  14.5125     0.0   48.9689
10895  10841.0  496.455      3.8861  14.5394     0.0   49.0009
10905  10851.0  496.855      3.9124  14.5658     0.0   49.0173
10915  10861.0  497.255      3.9394  14.5928     0.0   49.0526
10925  10871.0  497.655      3.9659  14.6193     0.0   49.0733
10935  10881.0  498.055      3.9926  14.6459     0.0   49.1043
10945  10891.0  498.455      4.0191  14.6725     0.0   49.1283
10955  10901.0  498.855      4.0456  14.6990     0.0   49.1503
10965  10911.0  499.255      4.0724  14.7258     0.0   49.1793
10975  10921.0  499.655      4.0992  14.7526     0.0   49.2068
10985  10931.0  500.055      4.1259  14.7792     0.0   49.2287
10995  10941.0  500.455      4.1525  14.8059     0.0   49.2668
11005  10951.0  500.855      4.1793  14.8327     0.0   49.2901
11015  10961.0  501.255      4.2058  14.8591     0.0   49.3059
11025  10971.0  501.655      4.2326  14.8859     0.0   49.3406
11035  10981.0  502.055      4.2591  14.9125     0.0   49.3651
11045  10991.0  502.455      4.2858  14.9392     0.0   49.3926
11055  11001.0  502.855      4.3124  14.9658     0.0   49.4228
11065  11011.0  503.255      4.3394  14.9928     0.0   49.4462
11075  11021.0  503.655      4.3659  15.0193     0.0   49.4721
11085  11031.0  504.055      4.3925  15.0458     0.0   49.4918
11095  11041.0  504.455      4.4191  15.0725     0.0   49.5219
11105  11051.0  504.855      4.4458  15.0992     0.0   49.5515
11115  11061.0  505.255      4.4723  15.1256     0.0   49.5716
11125  11071.0  505.655      4.4989  15.1523     0.0   49.5986
11135  11081.0  506.055      4.5259  15.1793     0.0   49.6253
11145  11091.0  506.455      4.5527  15.2060     0.0   49.6510
11155  11101.0  506.855      4.5787  15.2321     0.0   49.6671
11165  11111.0  507.255      4.6059  15.2593     0.0   49.6931
11175  11121.0  507.655      4.6326  15.2860     0.0   49.7302
11185  11131.0  508.055      4.6592  15.3126     0.0   49.7460
11195  11141.0  508.455      4.6859  15.3393     0.0   49.7743
11205  11151.0  508.855      4.7127  15.3660     0.0   49.7879
11215  11161.0  509.255      4.7391  15.3925     0.0   49.8141
11225  11171.0  509.655      4.7660  15.4194     0.0   49.8426
11235  11181.0  510.055      4.7924  15.4458     0.0   49.8678
11245  11191.0  510.455      4.8191  15.4725     0.0   49.8843
11255  11201.0  510.855      4.8460  15.4994     0.0   49.9070
11265  11211.0  511.255      4.8726  15.5260     0.0   49.9269
11275  11221.0  511.655      4.8991  15.5525     0.0   49.9558
11285  11231.0  512.055      4.9259  15.5793     0.0   49.9757
11295  11241.0  512.455      4.9523  15.6056     0.0   49.9949
11305  11251.0  512.855      4.9793  15.6327     0.0   50.0266
11315  11261.0  513.255      5.0058  15.6591     0.0   50.0458
11325  11271.0  513.655      5.0326  15.6859     0.0   50.0728
11335  11281.0  514.055      5.0591  15.7125     0.0   50.0960
11345  11291.0  514.455      5.0858  15.7392     0.0   50.1130
11355  11301.0  514.855      5.1127  15.7660     0.0   50.1368
11365  11311.0  515.255      5.1392  15.7926     0.0   50.1646
11375  11321.0  515.655      5.1657  15.8191     0.0   50.1792
11385  11331.0  516.055      5.1926  15.8460     0.0   50.2189
11395  11341.0  516.455      5.2190  15.8724     0.0   50.2246
11405  11351.0  516.855      5.2458  15.8991     0.0   50.2665
11415  11361.0  517.255      5.2726  15.9260     0.0   50.2797
11425  11371.0  517.655      5.2993  15.9526     0.0   50.3058
11435  11381.0  518.055      5.3257  15.9791     0.0   50.3177
11445  11391.0  518.455      5.3526  16.0060     0.0   50.3551
11455  11401.0  518.855      5.3790  16.0324     0.0   50.3648
11465  11411.0  519.255      5.4060  16.0594     0.0   50.3942
11475  11421.0  519.655      5.4326  16.0860     0.0   50.4197
11485  11431.0  520.055      5.4592  16.1126     0.0   50.4507
11495  11441.0  520.455      5.4856  16.1390     0.0   50.4543
11505  11451.0  520.855      5.5126  16.1659     0.0   50.4791
11515  11461.0  521.255      5.5391  16.1924     0.0   50.5037
11525  11471.0  521.655      5.5658  16.2192     0.0   50.5276
11535  11481.0  522.055      5.5922  16.2456     0.0   50.5438
11545  11491.0  522.455      5.6188  16.2722     0.0   50.5678
11555  11501.0  522.855      5.6458  16.2992     0.0   50.5892
11565  11511.0  523.255      5.6725  16.3258     0.0   50.6170
11575  11521.0  523.655      5.6994  16.3527     0.0   50.6373
11585  11531.0  524.055      5.7259  16.3793     0.0   50.6543
11595  11541.0  524.455      5.7525  16.4059     0.0   50.6774
11605  11551.0  524.855      5.7794  16.4328     0.0   50.6992
11615  11561.0  525.255      5.8059  16.4593     0.0   50.7285
11625  11571.0  525.655      5.8327  16.4861     0.0   50.7430
11635  11581.0  526.055      5.8593  16.5127     0.0   50.7707
11645  11591.0  526.455      5.8861  16.5394     0.0   50.7897
11655  11601.0  526.855      5.9126  16.5659     0.0   50.8097
11665  11611.0  527.255      5.9392  16.5926     0.0   50.8150
11675  11621.0  527.655      5.9660  16.6194     0.0   50.8409
11685  11631.0  528.055      5.9924  16.6458     0.0   50.8580
11695  11641.0  528.455      6.0190  16.6724     0.0   50.8775
11705  11651.0  528.855      6.0462  16.6996     0.0   50.9116
11715  11661.0  529.255      6.0721  16.7255     0.0   50.9169
11725  11671.0  529.655      6.0989  16.7523     0.0   50.9397
11735  11681.0  530.055      6.1257  16.7791     0.0   50.9499
11745  11691.0  530.455      6.1526  16.8059     0.0   50.9948
11755  11701.0  530.855      6.1792  16.8326     0.0   51.0123
11765  11711.0  531.255      6.2059  16.8592     0.0   51.0243
11775  11721.0  531.655      6.2323  16.8857     0.0   51.0427
11785  11731.0  532.055      6.2588  16.9122     0.0   51.0659
11795  11741.0  532.455      6.2857  16.9390     0.0   51.0892
11805  11751.0  532.855      6.3122  16.9656     0.0   51.1050
11815  11761.0  533.255      6.3392  16.9926     0.0   51.1213
11825  11771.0  533.655      6.3657  17.0191     0.0   51.1464
11835  11781.0  534.055      6.3927  17.0461     0.0   51.1739
11845  11791.0  534.455      6.4191  17.0724     0.0   51.1883
11855  11801.0  534.855      6.4456  17.0990     0.0   51.2122
11865  11811.0  535.255      6.4727  17.1261     0.0   51.2419
11875  11821.0  535.655      6.4994  17.1528     0.0   51.2543
11885  11831.0  536.055      6.5260  17.1794     0.0   51.2782
11895  11841.0  536.455      6.5526  17.2060     0.0   51.2975
11905  11851.0  536.855      6.5795  17.2329     0.0   51.3172
11915  11861.0  537.255      6.6055  17.2589     0.0   51.3272
11925  11871.0  537.655      6.6325  17.2859     0.0   51.3527
11935  11881.0  538.055      6.6591  17.3124     0.0   51.3704
11945  11891.0  538.455      6.6857  17.3391     0.0   51.3858
11955  11901.0  538.855      6.7130  17.3664     0.0   51.4218
11965  11911.0  539.255      6.7389  17.3922     0.0   51.4261
11975  11921.0  539.655      6.7655  17.4189     0.0   51.4457
11985  11931.0  540.055      6.7927  17.4461     0.0   51.4711
11995  11941.0  540.455      6.8190  17.4724     0.0   51.4878
12005  11951.0  540.855      6.8459  17.4993     0.0   51.5111
12015  11961.0  541.255      6.8721  17.5255     0.0   51.5239
12025  11971.0  541.655      6.8989  17.5523     0.0   51.5416
12035  11981.0  542.055      6.9254  17.5788     0.0   51.5615
12045  11991.0  542.455      6.9524  17.6058     0.0   51.5791
12055  12001.0  542.855      6.9791  17.6325     0.0   51.5917
12065  12011.0  543.255      7.0064  17.6597     0.0   51.6201
12075  12021.0  543.655      7.0325  17.6859     0.0   51.6301
12085  12031.0  544.055      7.0590  17.7124     0.0   51.6474
12095  12041.0  544.455      7.0858  17.7392     0.0   51.6554
12105  12051.0  544.855      7.1126  17.7660     0.0   51.6952
12115  12061.0  545.255      7.1394  17.7927     0.0   51.7041
12125  12071.0  545.655      7.1660  17.8194     0.0   51.7232
12135  12081.0  546.055      7.1929  17.8463     0.0   51.7518
12145  12091.0  546.455      7.2191  17.8725     0.0   51.7643
12155  12101.0  546.855      7.2458  17.8992     0.0   51.7886
12165  12111.0  547.255      7.2725  17.9259     0.0   51.7909
12175  12121.0  547.655      7.2992  17.9526     0.0   51.8179
12185  12131.0  548.055      7.3259  17.9793     0.0   51.8285
12195  12141.0  548.455      7.3528  18.0061     0.0   51.8488
12205  12151.0  548.855      7.3789  18.0323     0.0   51.8648
12215  12161.0  549.255      7.4059  18.0593     0.0   51.8862
12225  12171.0  549.655      7.4323  18.0857     0.0   51.9100
12235  12181.0  550.055      7.4595  18.1129     0.0   51.9291
12245  12191.0  550.455      7.4858  18.1391     0.0   51.9499
12255  12201.0  550.855      7.5120  18.1654     0.0   51.9509
12265  12211.0  551.255      7.5393  18.1926     0.0   51.9739
12275  12221.0  551.655      7.5653  18.2187     0.0   51.9924
12285  12231.0  552.055      7.5925  18.2458     0.0   52.0193
12295  12241.0  552.455      7.6192  18.2726     0.0   52.0431
12305  12251.0  552.855      7.6459  18.2993     0.0   52.0585
12315  12261.0  553.255      7.6725  18.3259     0.0   52.0719
12325  12271.0  553.655      7.6991  18.3525     0.0   52.0877
12335  12281.0  554.055      7.7261  18.3795     0.0   52.1237
12345  12291.0  554.455      7.7524  18.4057     0.0   52.1337
12355  12301.0  554.855      7.7787  18.4321     0.0   52.1546
12365  12311.0  555.255      7.8062  18.4596     0.0   52.1782
12375  12321.0  555.655      7.8327  18.4860     0.0   52.1792
12385  12331.0  556.055      7.8591  18.5125     0.0   52.1989
12395  12341.0  556.455      7.8854  18.5388     0.0   52.2225