           Num   Time(s)  PosAbs(mm)  Pos(mm)  Pos(%)  Load(kN)
0          1.0     0.005     -0.1993  -0.0021     0.0    0.0832
10        11.0     2.005     -0.1336   0.0637     0.0    0.1105
20        21.0     4.005     -0.0670   0.1303     0.0    0.1349
30        31.0     6.005     -0.0004   0.1969     0.0    0.1617
40        41.0     8.005      0.0664   0.2636     0.0    0.1906
50        51.0    10.005      0.1330   0.3302     0.0    0.2190
60        61.0    12.005      0.1997   0.3969     0.0    0.2498
70        71.0    14.005      0.2664   0.4636     0.0    0.2837
80        81.0    16.005      0.3330   0.5302     0.0    0.3147
90        91.0    18.005      0.3996   0.5968     0.0    0.3465
100      101.0    20.005      0.4664   0.6636     0.0    0.3869
110      111.0    22.005      0.5330   0.7302     0.0    0.4205
120      121.0    24.005      0.5996   0.7968     0.0    0.4664
130      131.0    26.005      0.6663   0.8635     0.0    0.5080
140      141.0    28.005      0.7329   0.9301     0.0    0.5555
150      151.0    30.005      0.7996   0.9968     0.0    0.6000
160      161.0    32.005      0.8663   1.0635     0.0    0.6508
170      171.0    34.005      0.9329   1.1301     0.0    0.7008
180      181.0    36.005      0.9996   1.1969     0.0    0.7564
190      191.0    38.005      1.0663   1.2635     0.0    0.8095
200      201.0    40.005      1.1329   1.3301     0.0    0.8692
210      211.0    42.005      1.1996   1.3969     0.0    0.9303
220      221.0    44.005      1.2663   1.4635     0.0    0.9929
230      231.0    46.005      1.3329   1.5301     0.0    1.0593
240      241.0    48.005      1.3997   1.5969     0.0    1.1250
250      251.0    50.005      1.4661   1.6634     0.0    1.1978
260      261.0    52.005      1.5330   1.7302     0.0    1.2752
270      271.0    54.005      1.5995   1.7967     0.0    1.3502
280      281.0    56.005      1.6663   1.8635     0.0    1.4329
290      291.0    58.005      1.7328   1.9301     0.0    1.5148
300      301.0    60.005      1.7998   1.9970     0.0    1.6034
310      311.0    62.005      1.8662   2.0634     0.0    1.6939
320      321.0    64.005      1.9328   2.1300     0.0    1.7900
330      331.0    66.005      1.9995   2.1968     0.0    1.8854
340      341.0    68.005      2.0663   2.2635     0.0    1.9910
350      351.0    70.005      2.1330   2.3302     0.0    2.0965
360      361.0    72.005      2.1995   2.3968     0.0    2.2084
370      371.0    74.005      2.2662   2.4634     0.0    2.3219
380      381.0    76.005      2.3330   2.5302     0.0    2.4422
390      391.0    78.005      2.3996   2.5968     0.0    2.5666
400      401.0    80.005      2.4662   2.6634     0.0    2.6934
410      411.0    82.005      2.5330   2.7302     0.0    2.7433
420      421.0    84.005      2.5996   2.7969     0.0    2.7557
430      431.0    86.005      2.6662   2.8634     0.0    2.8032
440      441.0    88.005      2.7329   2.9301     0.0    2.8188
450      451.0    90.005      2.7996   2.9968     0.0    2.8198
460      461.0    92.005      2.8662   3.0635     0.0    2.8415
470      471.0    94.005      2.9330   3.1302     0.0    2.8488
480      481.0    96.005      2.9999   3.1971     0.0    2.8745
490      491.0    98.005      3.0665   3.2637     0.0    2.8811
500      501.0   100.005      3.1331   3.3304     0.0    2.8855
510      511.0   102.005      3.1997   3.3969     0.0    2.9268
520      521.0   104.005      3.2664   3.4637     0.0    2.9337
530      531.0   106.005      3.3331   3.5303     0.0    2.9440
540      541.0   108.005      3.3995   3.5967     0.0    2.9944
550      551.0   110.005      3.4663   3.6635     0.0    3.0678
560      561.0   112.005      3.5331   3.7303     0.0    3.1284
570      571.0   114.005      3.5998   3.7970     0.0    3.1804
580      581.0   116.005      3.6665   3.8637     0.0    3.2581
590      591.0   118.005      3.7331   3.9303     0.0    3.3131
600      601.0   120.005      3.7999   3.9971     0.0    3.3173
610      611.0   122.005      3.8666   4.0639     0.0    3.3219
620      621.0   124.005      3.9331   4.1303     0.0    3.3194
630      631.0   126.005      3.9994   4.1966     0.0    3.3254
640      641.0   128.005      4.0668   4.2640     0.0    3.3195
650      651.0   130.005      4.1329   4.3302     0.0    3.3160
660      661.0   132.005      4.1998   4.3970     0.0    3.3398
670      671.0   134.005      4.2667   4.4639     0.0    3.3520
680      681.0   136.005      4.3332   4.5305     0.0    3.3658
690      691.0   138.005      4.3999   4.5972     0.0    3.3738
700      701.0   140.005      4.4664   4.6636     0.0    3.3766
710      711.0   142.005      4.5330   4.7303     0.0    3.3775
720      721.0   144.005      4.5996   4.7969     0.0    3.3805
730      731.0   146.005      4.6665   4.8638     0.0    3.3861
740      741.0   148.005      4.7332   4.9304     0.0    3.3907
750      751.0   150.005      4.7999   4.9971     0.0    3.3978
760      761.0   152.005      4.8667   5.0639     0.0    3.4028
770      771.0   154.005      4.9334   5.1306     0.0    3.4186
780      781.0   156.005      4.9996   5.1968     0.0    3.4345
790      791.0   158.005      5.0665   5.2637     0.0    3.4701
800      801.0   160.005      5.1334   5.3307     0.0    3.5827
810      811.0   162.005      5.2001   5.3973     0.0    3.7249
820      821.0   164.005      5.2664   5.4637     0.0    3.8147
830      831.0   166.005      5.3335   5.5307     0.0    3.8782
840      841.0   168.005      5.4000   5.5972     0.0    3.9922
850      851.0   170.005      5.4666   5.6638     0.0    4.1033
860      861.0   172.005      5.5337   5.7309     0.0    4.2044
870      871.0   174.005      5.5999   5.7971     0.0    4.2232
880      881.0   176.005      5.6664   5.8636     0.0    4.3342
890      891.0   178.005      5.7336   5.9308     0.0    4.5542
900      901.0   180.005      5.7999   5.9971     0.0    4.7857
910      911.0   182.005      5.8666   6.0639     0.0    4.9978
920      921.0   184.005      5.9331   6.1304     0.0    5.1810
930      931.0   186.005      6.0000   6.1972     0.0    5.3522
940      941.0   188.005      6.0669   6.2642     0.0    5.5236
950      951.0   190.005      6.1336   6.3308     0.0    5.6610
960      961.0   192.005      6.2001   6.3973     0.0    5.8099
970      971.0   194.005      6.2665   6.4637     0.0    5.9667
980      981.0   196.005      6.3331   6.5304     0.0    6.1488
990      991.0   198.005      6.4001   6.5973     0.0    6.3132
1000    1001.0   200.005      6.4665   6.6637     0.0    6.4365
1010    1011.0   202.005      6.5331   6.7303     0.0    6.6012
1020    1021.0   204.005      6.6003   6.7975     0.0    6.7773
1030    1031.0   206.005      6.6662   6.8634     0.0    6.9585
1040    1041.0   208.005      6.7333   6.9305     0.0    7.1621
1050    1051.0   210.005      6.8002   6.9974     0.0    7.3650
1060    1061.0   212.005      6.8666   7.0638     0.0    7.5774
1070    1071.0   214.005      6.9335   7.1308     0.0    7.8166
1080    1081.0   216.005      6.9999   7.1972     0.0    8.1556
1090    1091.0   218.005      7.0665   7.2638     0.0    8.4860
1100    1101.0   220.005      7.1338   7.3310     0.0    8.8145
1110    1111.0   222.005      7.2001   7.3973     0.0    9.1447
1120    1121.0   224.005      7.2667   7.4639     0.0    9.4825
1130    1131.0   226.005      7.3333   7.5305     0.0    9.8292
1140    1141.0   228.005      7.4002   7.5975     0.0   10.1955
1150    1151.0   230.005      7.4667   7.6640     0.0   10.5650
1160    1161.0   232.005      7.5332   7.7304     0.0   10.9679
1170    1171.0   234.005      7.6001   7.7974     0.0   11.3865
1180    1181.0   236.005      7.6664   7.8637     0.0   11.8282
1190    1191.0   238.005      7.7338   7.9310     0.0   12.3009
1200    1201.0   240.005      7.7998   7.9971     0.0   12.7683
1210    1211.0   242.005      7.8668   8.0640     0.0   13.2757
1220    1221.0   244.005      7.9330   8.1302     0.0   13.8013
1230    1231.0   246.005      7.9998   8.1971     0.0   14.3329
1240    1241.0   248.005      8.0665   8.2637     0.0   14.8867
1256    1251.0   248.705      8.0602   8.2575     0.0   14.5870
1266    1261.0   249.105      8.0594   8.2566     0.0   14.5349
1276    1271.0   249.505      8.0600   8.2572     0.0   14.4831
1286    1281.0   249.905      8.0604   8.2576     0.0   14.4449
1296    1291.0   250.305      8.0601   8.2573     0.0   14.3939
1306    1301.0   250.705      8.0604   8.2576     0.0   14.3574
1316    1311.0   251.105      8.0605   8.2577     0.0   14.3214
1326    1321.0   251.505      8.0600   8.2572     0.0   14.2774
1336    1331.0   251.905      8.0602   8.2574     0.0   14.2398
1346    1341.0   252.305      8.0605   8.2577     0.0   14.2151
1356    1351.0   252.705      8.0601   8.2573     0.0   14.1844
1366    1361.0   253.105      8.0601   8.2573     0.0   14.1581
1376    1371.0   253.505      8.0602   8.2574     0.0   14.1239
1386    1381.0   253.905      8.0599   8.2571     0.0   14.1062
1396    1391.0   254.305      8.0603   8.2575     0.0   14.0793
1406    1401.0   254.705      8.0602   8.2574     0.0   14.0505
1416    1411.0   255.105      8.0601   8.2574     0.0   14.0271
1426    1421.0   255.505      8.0601   8.2573     0.0   14.0053
1437    1431.0   255.905      8.0606   8.2578     0.0   13.9872
1447    1441.0   256.305      8.0600   8.2573     0.0   13.9587
1457    1451.0   256.705      8.0605   8.2577     0.0   13.9386
1467    1461.0   257.105      8.0601   8.2573     0.0   13.9252
1477    1471.0   257.505      8.0599   8.2571     0.0   13.9033
1487    1481.0   257.905      8.0602   8.2574     0.0   13.8974
1497    1491.0   258.305      8.0597   8.2569     0.0   13.8806
1507    1501.0   258.705      8.0600   8.2572     0.0   13.8580
1517    1511.0   259.105      8.0599   8.2572     0.0   13.8426
1527    1521.0   259.505      8.0597   8.2569     0.0   13.8310
1537    1531.0   259.905      8.0604   8.2576     0.0   13.8059
1547    1541.0   260.305      8.0600   8.2573     0.0   13.7910
1557    1551.0   260.705      8.0604   8.2576     0.0   13.7772
1567    1561.0   261.105      8.0601   8.2573     0.0   13.7637
1577    1571.0   261.505      8.0603   8.2576     0.0   13.7582
1587    1581.0   261.905      8.0605   8.2578     0.0   13.7304
1597    1591.0   262.305      8.0605   8.2577     0.0   13.7052
1607    1601.0   262.705      8.0608   8.2581     0.0   13.6898
1617    1611.0   263.105      8.0599   8.2571     0.0   13.6713
1627    1621.0   263.505      8.0605   8.2577     0.0   13.7009
1637    1631.0   263.905      8.0601   8.2573     0.0   13.6796
1647    1641.0   264.305      8.0601   8.2573     0.0   13.6715
1657    1651.0   264.705      8.0598   8.2570     0.0   13.6500
1667    1661.0   265.105      8.0600   8.2572     0.0   13.6503
1677    1671.0   265.505      8.0603   8.2576     0.0   13.6410
1687    1681.0   265.905      8.0601   8.2573     0.0   13.6039
1697    1691.0   266.305      8.0603   8.2575     0.0   13.5819
1707    1701.0   266.705      8.0607   8.2580     0.0   13.5890
1717    1711.0   267.105      8.0597   8.2570     0.0   13.5708
1727    1721.0   267.505      8.0597   8.2569     0.0   13.5473
1737    1731.0   267.905      8.0601   8.2573     0.0   13.5413
1747    1741.0   268.305      8.0603   8.2575     0.0   13.5351
1757    1751.0   268.705      8.0603   8.2575     0.0   13.5306
1767    1761.0   269.105      8.0595   8.2568     0.0   13.5073
1777    1771.0   269.505      8.0602   8.2575     0.0   13.5080
1787    1781.0   269.905      8.0602   8.2575     0.0   13.4877
1797    1791.0   270.305      8.0603   8.2575     0.0   13.4825
1807    1801.0   270.705      8.0602   8.2574     0.0   13.4605
1817    1811.0   271.105      8.0603   8.2575     0.0   13.4539
1827    1821.0   271.505      8.0604   8.2576     0.0   13.4497
1837    1831.0   271.905      8.0604   8.2577     0.0   13.4430
1847    1841.0   272.305      8.0602   8.2574     0.0   13.4347
1857    1851.0   272.705      8.0605   8.2577     0.0   13.4255
1867    1861.0   273.105      8.0599   8.2571     0.0   13.4167
1877    1871.0   273.505      8.0603   8.2576     0.0   13.4062
1887    1881.0   273.905      8.0601   8.2573     0.0   13.3921
1897    1891.0   274.305      8.0600   8.2573     0.0   13.3868
1907    1901.0   274.705      8.0606   8.2578     0.0   13.3777
1917    1911.0   275.105      8.0602   8.2574     0.0   13.3737
1927    1921.0   275.505      8.0604   8.2577     0.0   13.3633
1937    1931.0   275.905      8.0599   8.2572     0.0   13.3628
1947    1941.0   276.305      8.0603   8.2575     0.0   13.3516
1957    1951.0   276.705      8.0599   8.2572     0.0   13.3548
1967    1961.0   277.105      8.0600   8.2572     0.0   13.3363
1977    1971.0   277.505      8.0599   8.2571     0.0   13.3328
1987    1981.0   277.905      8.0604   8.2576     0.0   13.3271
1997    1991.0   278.305      8.0601   8.2573     0.0   13.3214
2007    2001.0   278.705      8.0606   8.2578     0.0   13.3055
2017    2011.0   279.105      8.0598   8.2570     0.0   13.2976
2027    2021.0   279.505      8.0603   8.2575     0.0   13.2890
2037    2031.0   279.905      8.0600   8.2572     0.0   13.2808
2047    2041.0   280.305      8.0602   8.2574     0.0   13.2766
2057    2051.0   280.705      8.0604   8.2576     0.0   13.2623
2067    2061.0   281.105      8.0601   8.2573     0.0   13.2611
2077    2071.0   281.505      8.0602   8.2574     0.0   13.2470
2087    2081.0   281.905      8.0599   8.2571     0.0   13.2414
2097    2091.0   282.305      8.0600   8.2573     0.0   13.2353
2107    2101.0   282.705      8.0597   8.2569     0.0   13.2236
2117    2111.0   283.105      8.0605   8.2577     0.0   13.2271
2127    2121.0   283.505      8.0605   8.2577     0.0   13.2264
2137    2131.0   283.905      8.0604   8.2577     0.0   13.2112
2147    2141.0   284.305      8.0603   8.2575     0.0   13.2117
2157    2151.0   284.705      8.0605   8.2577     0.0   13.2070
2167    2161.0   285.105      8.0604   8.2576     0.0   13.1870
2177    2171.0   285.505      8.0605   8.2578     0.0   13.1894
2187    2181.0   285.905      8.0604   8.2576     0.0   13.1752
2197    2191.0   286.305      8.0602   8.2575     0.0   13.1777
2207    2201.0   286.705      8.0599   8.2571     0.0   13.1664
2217    2211.0   287.105      8.0604   8.2576     0.0   13.1654
2227    2221.0   287.505      8.0607   8.2579     0.0   13.1605
2237    2231.0   287.905      8.0601   8.2574     0.0   13.1602
2247    2241.0   288.305      8.0601   8.2574     0.0   13.1480
2257    2251.0   288.705      8.0606   8.2578     0.0   13.1363
2267    2261.0   289.105      8.0608   8.2580     0.0   13.1274
2277    2271.0   289.505      8.0604   8.2576     0.0   13.1237
2287    2281.0   289.905      8.0602   8.2574     0.0   13.1144
2297    2291.0   290.305      8.0602   8.2574     0.0   13.1054
2307    2301.0   290.705      8.0600   8.2573     0.0   13.0945
2317    2311.0   291.105      8.0607   8.2580     0.0   13.0901
2327    2321.0   291.505      8.0606   8.2578     0.0   13.0815
2337    2331.0   291.905      8.0607   8.2579     0.0   13.0884
2347    2341.0   292.305      8.0599   8.2571     0.0   13.0798
2357    2351.0   292.705      8.0607   8.2579     0.0   13.0687
2367    2361.0   293.105      8.0603   8.2576     0.0   13.0548
2377    2371.0   293.505      8.0602   8.2574     0.0   13.0522
2387    2381.0   293.905      8.0606   8.2578     0.0   13.0439
2397    2391.0   294.305      8.0601   8.2574     0.0   13.0493
2407    2401.0   294.705      8.0605   8.2577     0.0   13.0363
2417    2411.0   295.105      8.0600   8.2573     0.0   13.0325
2427    2421.0   295.505      8.0604   8.2576     0.0   13.0314
2437    2431.0   295.905      8.0602   8.2575     0.0   13.0241
2447    2441.0   296.305      8.0602   8.2574     0.0   13.0229
2457    2451.0   296.705      8.0603   8.2575     0.0   13.0219
2467    2461.0   297.105      8.0603   8.2575     0.0   13.0198
2477    2471.0   297.505      8.0600   8.2572     0.0   13.0183
2487    2481.0   297.905      8.0600   8.2572     0.0   13.0164
2497    2491.0   298.305      8.0603   8.2575     0.0   13.0067
2507    2501.0   298.705      8.0596   8.2568     0.0   12.9855
2517    2511.0   299.105      8.0605   8.2577     0.0   12.9824
2527    2521.0   299.505      8.0606   8.2578     0.0   13.0143
2537    2531.0   299.905      8.0603   8.2575     0.0   12.9904
2547    2541.0   300.305      8.0600   8.2573     0.0   12.9578
2557    2551.0   300.705      8.0603   8.2575     0.0   12.9731
2567    2561.0   301.105      8.0604   8.2576     0.0   13.0147
2577    2571.0   301.505      8.0603   8.2575     0.0   12.9741
2587    2581.0   301.905      8.0606   8.2578     0.0   12.9274
2597    2591.0   302.305      8.0600   8.2572     0.0   12.9311
2607    2601.0   302.705      8.0603   8.2575     0.0   12.9732
2617    2611.0   303.105      8.0605   8.2578     0.0   12.9758
2627    2621.0   303.505      8.0602   8.2574     0.0   12.9759
2637    2631.0   303.905      8.0606   8.2578     0.0   12.9510
2647    2641.0   304.305      8.0598   8.2570     0.0   12.9404
2657    2651.0   304.705      8.0601   8.2574     0.0   12.9495
2667    2661.0   305.105      8.0607   8.2579     0.0   12.9328
2677    2671.0   305.505      8.0607   8.2580     0.0   12.9212
2687    2681.0   305.905      8.0609   8.2581     0.0   12.9192
2697    2691.0   306.305      8.0604   8.2576     0.0   12.9116
2707    2701.0   306.705      8.0602   8.2575     0.0   12.9042
2717    2711.0   307.105      8.0606   8.2579     0.0   12.9022
2727    2721.0   307.505      8.0601   8.2574     0.0   12.8979
2737    2731.0   307.905      8.0603   8.2575     0.0   12.8934
2747    2741.0   308.305      8.0608   8.2581     0.0   12.8916
2757    2751.0   308.705      8.0608   8.2580     0.0   12.9032
2767    2761.0   309.105      8.0600   8.2573     0.0   12.8898
2777    2771.0   309.505      8.0600   8.2572     0.0   12.8828
2787    2781.0   309.905      8.0609   8.2581     0.0   12.8961
2797    2791.0   310.305      8.0600   8.2573     0.0   12.8847
2807    2801.0   310.705      8.0601   8.2574     0.0   12.8794
2817    2811.0   311.105      8.0600   8.2572     0.0   12.8839
2827    2821.0   311.505      8.0604   8.2576     0.0   12.8643
2837    2831.0   311.905      8.0606   8.2578     0.0   12.8491
2847    2841.0   312.305      8.0604   8.2576     0.0   12.8452
2857    2851.0   312.705      8.0603   8.2575     0.0   12.8892
2867    2861.0   313.105      8.0601   8.2574     0.0   12.8585
2877    2871.0   313.505      8.0607   8.2579     0.0   12.8574
2887    2881.0   313.905      8.0600   8.2573     0.0   12.8833
2897    2891.0   314.305      8.0605   8.2577     0.0   12.8650
2907    2901.0   314.705      8.0600   8.2573     0.0   12.8340
2917    2911.0   315.105      8.0604   8.2576     0.0   12.8262
2927    2921.0   315.505      8.0605   8.2577     0.0   12.8232
2937    2931.0   315.905      8.0602   8.2574     0.0   12.8349
2947    2941.0   316.305      8.0602   8.2574     0.0   12.8300
2957    2951.0   316.705      8.0600   8.2572     0.0   12.8274
2967    2961.0   317.105      8.0606   8.2578     0.0   12.7981
2977    2971.0   317.505      8.0603   8.2575     0.0   12.8057
2987    2981.0   317.905      8.0601   8.2574     0.0   12.7998
2997    2991.0   318.305      8.0599   8.2571     0.0   12.7924
3007    3001.0   318.705      8.0607   8.2579     0.0   12.7994
3017    3011.0   319.105      8.0603   8.2575     0.0   12.7668
3027    3021.0   319.505      8.0602   8.2575     0.0   12.7804
3037    3031.0   319.905      8.0602   8.2574     0.0   12.7928
3047    3041.0   320.305      8.0603   8.2575     0.0   12.7953
3057    3051.0   320.705      8.0607   8.2580     0.0   12.7758
3067    3061.0   321.105      8.0603   8.2575     0.0   12.7688
3077    3071.0   321.505      8.0605   8.2577     0.0   12.7644
3087    3081.0   321.905      8.0605   8.2577     0.0   12.7652
3097    3091.0   322.305      8.0605   8.2577     0.0   12.7581
3107    3101.0   322.705      8.0605   8.2577     0.0   12.7420
3117    3111.0   323.105      8.0601   8.2573     0.0   12.7350
3127    3121.0   323.505      8.0602   8.2575     0.0   12.7380
3137    3131.0   323.905      8.0604   8.2576     0.0   12.7374
3147    3141.0   324.305      8.0603   8.2576     0.0   12.7317
3157    3151.0   324.705      8.0604   8.2576     0.0   12.7285
3174    3161.0   325.180      8.0605   8.2577     0.0   12.7281
3184    3171.0   325.580      8.0732   8.2704     0.0   12.9666
3194    3181.0   325.980      8.0863   8.2835     0.0   13.2083
3204    3191.0   326.380      8.0998   8.2971     0.0   13.4434
3214    3201.0   326.780      8.1129   8.3101     0.0   13.6670
3224    3211.0   327.180      8.1266   8.3238     0.0   13.8897
3234    3221.0   327.580      8.1397   8.3369     0.0   14.0864
3244    3231.0   327.980      8.1532   8.3504     0.0   14.2935
3254    3241.0   328.380      8.1667   8.3639     0.0   14.4816
3264    3251.0   328.780      8.1795   8.3768     0.0   14.6688
3274    3261.0   329.180      8.1930   8.3902     0.0   14.8616
3284    3271.0   329.580      8.2066   8.4038     0.0   15.0367
3294    3281.0   329.980      8.2194   8.4166     0.0   15.2221
3304    3291.0   330.380      8.2332   8.4305     0.0   15.4054
3314    3301.0   330.780      8.2465   8.4437     0.0   15.5870
3324    3311.0   331.180      8.2595   8.4568     0.0   15.7532
3334    3321.0   331.580      8.2731   8.4703     0.0   15.9298
3344    3331.0   331.980      8.2862   8.4834     0.0   16.0952
3354    3341.0   332.380      8.2994   8.4967     0.0   16.2543
3364    3351.0   332.780      8.3128   8.5101     0.0   16.4169
3374    3361.0   333.180      8.3260   8.5233     0.0   16.5761
3384    3371.0   333.580      8.3396   8.5368     0.0   16.7434
3394    3381.0   333.980      8.3528   8.5500     0.0   16.8973
3404    3391.0   334.380      8.3663   8.5635     0.0   17.0589
3414    3401.0   334.780      8.3796   8.5768     0.0   17.2162
3424    3411.0   335.180      8.3932   8.5904     0.0   17.3694
3434    3421.0   335.580      8.4062   8.6034     0.0   17.5131
3444    3431.0   335.980      8.4198   8.6171     0.0   17.6688
3454    3441.0   336.380      8.4335   8.6307     0.0   17.8089
3464    3451.0   336.780      8.4463   8.6435     0.0   17.9484
3474    3461.0   337.180      8.4595   8.6567     0.0   18.0792
3484    3471.0   337.580      8.4728   8.6700     0.0   18.2394
3494    3481.0   337.980      8.4860   8.6833     0.0   18.3858
3504    3491.0   338.380      8.4996   8.6968     0.0   18.5402
3514    3501.0   338.780      8.5126   8.7098     0.0   18.6687
3524    3511.0   339.180      8.5263   8.7236     0.0   18.8233
3534    3521.0   339.580      8.5396   8.7368     0.0   18.9591
3544    3531.0   339.980      8.5533   8.7506     0.0   19.1079
3554    3541.0   340.380      8.5663   8.7635     0.0   19.2448
3564    3551.0   340.780      8.5798   8.7770     0.0   19.3967
3574    3561.0   341.180      8.5927   8.7900     0.0   19.5088
3584    3571.0   341.580      8.6063   8.8035     0.0   19.6273
3594    3581.0   341.980      8.6198   8.8170     0.0   19.7485
3604    3591.0   342.380      8.6328   8.8300     0.0   19.8802
3614    3601.0   342.780      8.6462   8.8434     0.0   19.9977
3624    3611.0   343.180      8.6596   8.8568     0.0   20.1181
3634    3621.0   343.580      8.6729   8.8701     0.0   20.2290
3644    3631.0   343.980      8.6862   8.8834     0.0   20.3177
3654    3641.0   344.380      8.6994   8.8966     0.0   20.4082
3664    3651.0   344.780      8.7130   8.9102     0.0   20.5067
3674    3661.0   345.180      8.7262   8.9234     0.0   20.6058
3684    3671.0   345.580      8.7398   8.9370     0.0   20.6911
3694    3681.0   345.980      8.7528   8.9501     0.0   20.7787
3704    3691.0   346.380      8.7663   8.9636     0.0   20.8816
3714    3701.0   346.780      8.7794   8.9766     0.0   20.9956
3724    3711.0   347.180      8.7927   8.9899     0.0   21.1032
3734    3721.0   347.580      8.8063   9.0036     0.0   21.2129
3744    3731.0   347.980      8.8197   9.0169     0.0   21.3293
3754    3741.0   348.380      8.8329   9.0301     0.0   21.4286
3764    3751.0   348.780      8.8465   9.0437     0.0   21.5572
3774    3761.0   349.180      8.8588   9.0560     0.0   21.6700
3784    3771.0   349.580      8.8731   9.0703     0.0   21.7743
3794    3781.0   349.980      8.8862   9.0834     0.0   21.8619
3804    3791.0   350.380      8.8995   9.0968     0.0   21.9675
3814    3801.0   350.780      8.9130   9.1103     0.0   22.0833
3824    3811.0   351.180      8.9260   9.1232     0.0   22.1776
3834    3821.0   351.580      8.9397   9.1369     0.0   22.2926
3844    3831.0   351.980      8.9528   9.1500     0.0   22.4172
3854    3841.0   352.380      8.9661   9.1634     0.0   22.5383
3864    3851.0   352.780      8.9796   9.1768     0.0   22.6525
3874    3861.0   353.180      8.9929   9.1901     0.0   22.7639
3884    3871.0   353.580      9.0060   9.2032     0.0   22.8855
3894    3881.0   353.980      9.0191   9.2163     0.0   22.9964
3904    3891.0   354.380      9.0326   9.2299     0.0   23.0989
3914    3901.0   354.780      9.0460   9.2432     0.0   23.2087
3924    3911.0   355.180      9.0598   9.2570     0.0   23.3134
3934    3921.0   355.580      9.0732   9.2704     0.0   23.3980
3944    3931.0   355.980      9.0864   9.2836     0.0   23.5098
3954    3941.0   356.380      9.0996   9.2969     0.0   23.5808
3964    3951.0   356.780      9.1128   9.3100     0.0   23.6302
3974    3961.0   357.180      9.1263   9.3236     0.0   23.6850
3984    3971.0   357.580      9.1399   9.3372     0.0   23.7569
3994    3981.0   357.980      9.1528   9.3500     0.0   23.6482
4004    3991.0   358.380      9.1662   9.3634     0.0   23.5276
4014    4001.0   358.780      9.1795   9.3767     0.0   23.5294
4024    4011.0   359.180      9.1927   9.3899     0.0   23.5976
4034    4021.0   359.580      9.2065   9.4037     0.0   23.7050
4044    4031.0   359.980      9.2196   9.4169     0.0   23.8454
4054    4041.0   360.380      9.2326   9.4298     0.0   23.9683
4064    4051.0   360.780      9.2463   9.4435     0.0   24.0938
4074    4061.0   361.180      9.2596   9.4568     0.0   24.2248
4084    4071.0   361.580      9.2727   9.4700     0.0   24.3541
4094    4081.0   361.980      9.2862   9.4834     0.0   24.4935
4104    4091.0   362.380      9.3004   9.4977     0.0   24.6232
4114    4101.0   362.780      9.3127   9.5100     0.0   24.7565
4124    4111.0   363.180      9.3260   9.5233     0.0   24.8751
4134    4121.0   363.580      9.3394   9.5366     0.0   24.9995
4150    4131.0   363.965      9.3212   9.5184     0.0   24.4765
4160    4141.0   364.365      9.3218   9.5190     0.0   24.4256
4170    4151.0   364.765      9.3211   9.5183     0.0   24.3658
4180    4161.0   365.165      9.3217   9.5189     0.0   24.3152
4190    4171.0   365.565      9.3216   9.5188     0.0   24.2572
4200    4181.0   365.965      9.3216   9.5189     0.0   24.2294
4210    4191.0   366.365      9.3222   9.5195     0.0   24.1773
4220    4201.0   366.765      9.3210   9.5182     0.0   24.1334
4230    4211.0   367.165      9.3219   9.5191     0.0   24.1032
4240    4221.0   367.565      9.3218   9.5190     0.0   24.0617
4250    4231.0   367.965      9.3218   9.5191     0.0   24.0217
4260    4241.0   368.365      9.3218   9.5190     0.0   23.9904
4270    4251.0   368.765      9.3213   9.5186     0.0   23.9606
4280    4261.0   369.165      9.3216   9.5188     0.0   23.9197
4290    4271.0   369.565      9.3217   9.5190     0.0   23.9012
4300    4281.0   369.965      9.3216   9.5188     0.0   23.8685
4310    4291.0   370.365      9.3215   9.5188     0.0   23.8502
4320    4301.0   370.765      9.3217   9.5189     0.0   23.8184
4330    4311.0   371.165      9.3215   9.5187     0.0   23.7914
4340    4321.0   371.565      9.3214   9.5186     0.0   23.7723
4350    4331.0   371.965      9.3217   9.5189     0.0   23.7500
4360    4341.0   372.365      9.3219   9.5191     0.0   23.7310
4370    4351.0   372.765      9.3224   9.5197     0.0   23.7012
4380    4361.0   373.165      9.3211   9.5184     0.0   23.6735
4390    4371.0   373.565      9.3219   9.5192     0.0   23.6500
4400    4381.0   373.965      9.3217   9.5189     0.0   23.6313
4410    4391.0   374.365      9.3219   9.5191     0.0   23.6081
4420    4401.0   374.765      9.3214   9.5186     0.0   23.5743
4430    4411.0   375.165      9.3218   9.5191     0.0   23.5631
4440    4421.0   375.565      9.3216   9.5188     0.0   23.5405
4450    4431.0   375.965      9.3215   9.5187     0.0   23.5281
4460    4441.0   376.365      9.3217   9.5189     0.0   23.5105
4470    4451.0   376.765      9.3216   9.5188     0.0   23.4882
4480    4461.0   377.165      9.3220   9.5192     0.0   23.4712
4490    4471.0   377.565      9.3215   9.5187     0.0   23.4433
4500    4481.0   377.965      9.3211   9.5184     0.0   23.4370
4510    4491.0   378.365      9.3221   9.5193     0.0   23.4139
4520    4501.0   378.765      9.3215   9.5188     0.0   23.4024
4530    4511.0   379.165      9.3218   9.5191     0.0   23.3827
4540    4521.0   379.565      9.3218   9.5191     0.0   23.3652
4550    4531.0   379.965      9.3215   9.5187     0.0   23.3520
4560    4541.0   380.365      9.3214   9.5186     0.0   23.3432
4570    4551.0   380.765      9.3217   9.5189     0.0   23.3224
4581    4561.0   381.165      9.3219   9.5191     0.0   23.2984
4591    4571.0   381.565      9.3219   9.5192     0.0   23.2804
4601    4581.0   381.965      9.3216   9.5189     0.0   23.2734
4611    4591.0   382.365      9.3216   9.5189     0.0   23.2523
4621    4601.0   382.765      9.3215   9.5187     0.0   23.2381
4631    4611.0   383.165      9.3217   9.5189     0.0   23.2264
4641    4621.0   383.565      9.3216   9.5189     0.0   23.2215
4651    4631.0   383.965      9.3218   9.5190     0.0   23.1972
4661    4641.0   384.365      9.3215   9.5187     0.0   23.1866
4671    4651.0   384.765      9.3210   9.5183     0.0   23.1760
4681    4661.0   385.165      9.3213   9.5185     0.0   23.1562
4691    4671.0   385.565      9.3213   9.5185     0.0   23.1499
4701    4681.0   385.965      9.3219   9.5192     0.0   23.1318
4711    4691.0   386.365      9.3219   9.5191     0.0   23.1078
4721    4701.0   386.765      9.3223   9.5195     0.0   23.0941
4731    4711.0   387.165      9.3215   9.5187     0.0   23.0901
4741    4721.0   387.565      9.3221   9.5194     0.0   23.0784
4751    4731.0   387.965      9.3221   9.5193     0.0   23.0761
4761    4741.0   388.365      9.3221   9.5193     0.0   23.0652
4771    4751.0   388.765      9.3221   9.5194     0.0   23.0491
4781    4761.0   389.165      9.3224   9.5196     0.0   23.0576
4791    4771.0   389.565      9.3219   9.5191     0.0   23.0353
4801    4781.0   389.965      9.3221   9.5194     0.0   23.0148
4811    4791.0   390.365      9.3217   9.5190     0.0   23.0046
4821    4801.0   390.765      9.3219   9.5191     0.0   22.9942
4831    4811.0   391.165      9.3221   9.5193     0.0   22.9882
4841    4821.0   391.565      9.3220   9.5192     0.0   22.9777
4851    4831.0   391.965      9.3213   9.5186     0.0   22.9571
4861    4841.0   392.365      9.3214   9.5187     0.0   22.9390
4871    4851.0   392.765      9.3211   9.5183     0.0   22.9334
4881    4861.0   393.165      9.3219   9.5191     0.0   22.9282
4891    4871.0   393.565      9.3224   9.5196     0.0   22.9161
4901    4881.0   393.965      9.3216   9.5189     0.0   22.9025
4911    4891.0   394.365      9.3211   9.5184     0.0   22.9054
4921    4901.0   394.765      9.3217   9.5189     0.0   22.8850
4931    4911.0   395.165      9.3215   9.5187     0.0   22.8778
4941    4921.0   395.565      9.3217   9.5189     0.0   22.8734
4951    4931.0   395.965      9.3215   9.5187     0.0   22.8694
4961    4941.0   396.365      9.3214   9.5186     0.0   22.8522
4971    4951.0   396.765      9.3218   9.5191     0.0   22.8317
4981    4961.0   397.165      9.3215   9.5187     0.0   22.8231
4991    4971.0   397.565      9.3220   9.5192     0.0   22.8185
5001    4981.0   397.965      9.3218   9.5191     0.0   22.8039
5011    4991.0   398.365      9.3216   9.5189     0.0   22.7930
5021    5001.0   398.765      9.3221   9.5194     0.0   22.7815
5031    5011.0   399.165      9.3216   9.5188     0.0   22.7751
5041    5021.0   399.565      9.3218   9.5190     0.0   22.7593
5051    5031.0   399.965      9.3213   9.5185     0.0   22.7512
5061    5041.0   400.365      9.3211   9.5183     0.0   22.7517
5071    5051.0   400.765      9.3219   9.5191     0.0   22.7443
5081    5061.0   401.165      9.3219   9.5191     0.0   22.7386
5091    5071.0   401.565      9.3213   9.5185     0.0   22.7127
5101    5081.0   401.965      9.3216   9.5188     0.0   22.7243
5111    5091.0   402.365      9.3213   9.5185     0.0   22.7009
5121    5101.0   402.765      9.3217   9.5189     0.0   22.7003
5131    5111.0   403.165      9.3218   9.5190     0.0   22.6926
5141    5121.0   403.565      9.3219   9.5191     0.0   22.6909
5151    5131.0   403.965      9.3220   9.5192     0.0   22.6728
5161    5141.0   404.365      9.3212   9.5185     0.0   22.6838
5171    5151.0   404.765      9.3216   9.5188     0.0   22.6671
5181    5161.0   405.165      9.3215   9.5187     0.0   22.6777
5191    5171.0   405.565      9.3218   9.5190     0.0   22.6588
5201    5181.0   405.965      9.3221   9.5194     0.0   22.6535
5211    5191.0   406.365      9.3222   9.5194     0.0   22.6467
5221    5201.0   406.765      9.3221   9.5194     0.0   22.6305
5231    5211.0   407.165      9.3215   9.5188     0.0   22.6230
5241    5221.0   407.565      9.3222   9.5194     0.0   22.6303
5251    5231.0   407.965      9.3218   9.5190     0.0   22.6147
5261    5241.0   408.365      9.3221   9.5193     0.0   22.5950
5271    5251.0   408.765      9.3222   9.5194     0.0   22.5907
5281    5261.0   409.165      9.3222   9.5195     0.0   22.5926
5291    5271.0   409.565      9.3221   9.5193     0.0   22.6227
5301    5281.0   409.965      9.3220   9.5192     0.0   22.5818
5311    5291.0   410.365      9.3222   9.5195     0.0   22.6074
5321    5301.0   410.765      9.3216   9.5188     0.0   22.5746
5331    5311.0   411.165      9.3216   9.5188     0.0   22.5582
5341    5321.0   411.565      9.3218   9.5191     0.0   22.5391
5351    5331.0   411.965      9.3218   9.5190     0.0   22.5515
5361    5341.0   412.365      9.3220   9.5192     0.0   22.5482
5371    5351.0   412.765      9.3219   9.5192     0.0   22.5305
5381    5361.0   413.165      9.3224   9.5197     0.0   22.5216
5391    5371.0   413.565      9.3212   9.5184     0.0   22.5110
5401    5381.0   413.965      9.3218   9.5190     0.0   22.5061
5411    5391.0   414.365      9.3218   9.5190     0.0   22.4984
5421    5401.0   414.765      9.3219   9.5191     0.0   22.5000
5431    5411.0   415.165      9.3216   9.5189     0.0   22.4884
5441    5421.0   415.565      9.3215   9.5187     0.0   22.4832
5451    5431.0   415.965      9.3219   9.5192     0.0   22.4697
5461    5441.0   416.365      9.3218   9.5190     0.0   22.4540
5471    5451.0   416.765      9.3222   9.5194     0.0   22.4540
5481    5461.0   417.165      9.3218   9.5190     0.0   22.4435
5491    5471.0   417.565      9.3218   9.5191     0.0   22.4310
5501    5481.0   417.965      9.3215   9.5188     0.0   22.4187
5511    5491.0   418.365      9.3221   9.5193     0.0   22.4075
5521    5501.0   418.765      9.3218   9.5190     0.0   22.3984
5531    5511.0   419.165      9.3218   9.5191     0.0   22.3960
5541    5521.0   419.565      9.3222   9.5195     0.0   22.4182
5551    5531.0   419.965      9.3225   9.5198     0.0   22.4130
5561    5541.0   420.365      9.3217   9.5190     0.0   22.4252
5571    5551.0   420.765      9.3220   9.5192     0.0   22.4099
5581    5561.0   421.165      9.3218   9.5190     0.0   22.3831
5591    5571.0   421.565      9.3219   9.5192     0.0   22.3900
5601    5581.0   421.965      9.3218   9.5191     0.0   22.3776
5611    5591.0   422.365      9.3217   9.5189     0.0   22.3824
5621    5601.0   422.765      9.3220   9.5192     0.0   22.3708
5631    5611.0   423.165      9.3216   9.5188     0.0   22.3627
5641    5621.0   423.565      9.3220   9.5192     0.0   22.3500
5651    5631.0   423.965      9.3223   9.5195     0.0   22.3704
5661    5641.0   424.365      9.3219   9.5192     0.0   22.3395
5671    5651.0   424.765      9.3218   9.5190     0.0   22.3513
5681    5661.0   425.165      9.3221   9.5193     0.0   22.3452
5691    5671.0   425.565      9.3215   9.5188     0.0   22.3379
5701    5681.0   425.965      9.3211   9.5183     0.0   22.3201
5711    5691.0   426.365      9.3222   9.5194     0.0   22.3154
5721    5701.0   426.765      9.3217   9.5189     0.0   22.3150
5731    5711.0   427.165      9.3219   9.5192     0.0   22.3064
5741    5721.0   427.565      9.3220   9.5193     0.0   22.3038
5751    5731.0   427.965      9.3215   9.5187     0.0   22.2978
5761    5741.0   428.365      9.3217   9.5190     0.0   22.2904
5771    5751.0   428.765      9.3218   9.5190     0.0   22.2855
5781    5761.0   429.165      9.3217   9.5190     0.0   22.2843
5791    5771.0   429.565      9.3218   9.5190     0.0   22.2748
5801    5781.0   429.965      9.3221   9.5194     0.0   22.2674
5811    5791.0   430.365      9.3220   9.5192     0.0   22.2551
5821    5801.0   430.765      9.3223   9.5195     0.0   22.2575
5831    5811.0   431.165      9.3220   9.5192     0.0   22.2414
5841    5821.0   431.565      9.3217   9.5190     0.0   22.2399
5851    5831.0   431.965      9.3223   9.5195     0.0   22.2371
5861    5841.0   432.365      9.3219   9.5191     0.0   22.2232
5871    5851.0   432.765      9.3221   9.5193     0.0   22.2238
5881    5861.0   433.165      9.3223   9.5195     0.0   22.2209
5891    5871.0   433.565      9.3217   9.5189     0.0   22.2414
5901    5881.0   433.965      9.3221   9.5193     0.0   22.2359
5911    5891.0   434.365      9.3218   9.5190     0.0   22.2192
5921    5901.0   434.765      9.3224   9.5196     0.0   22.1984
5931    5911.0   435.165      9.3220   9.5192     0.0   22.2020
5941    5921.0   435.565      9.3221   9.5193     0.0   22.2006
5951    5931.0   435.965      9.3220   9.5192     0.0   22.1907
5961    5941.0   436.365      9.3220   9.5192     0.0   22.1831
5971    5951.0   436.765      9.3218   9.5191     0.0   22.1698
5981    5961.0   437.165      9.3219   9.5192     0.0   22.1554
5991    5971.0   437.565      9.3219   9.5192     0.0   22.1656
6001    5981.0   437.965      9.3215   9.5188     0.0   22.1470
6011    5991.0   438.365      9.3218   9.5191     0.0   22.1546
6021    6001.0   438.765      9.3221   9.5193     0.0   22.1356
6031    6011.0   439.165      9.3221   9.5193     0.0   22.1307
6041    6021.0   439.565      9.3220   9.5192     0.0   22.1338
6051    6031.0   439.965      9.3218   9.5190     0.0   22.1333
6061    6041.0   440.365      9.3218   9.5190     0.0   22.1341
6071    6051.0   440.765      9.3218   9.5190     0.0   22.1410
6081    6061.0   441.165      9.3220   9.5192     0.0   22.1109
6091    6071.0   441.565      9.3218   9.5191     0.0   22.0953
6101    6081.0   441.965      9.3218   9.5190     0.0   22.1273
6111    6091.0   442.365      9.3218   9.5190     0.0   22.1175
6121    6101.0   442.765      9.3218   9.5191     0.0   22.1099
6131    6111.0   443.165      9.3214   9.5186     0.0   22.1025
6141    6121.0   443.565      9.3215   9.5187     0.0   22.1071
6151    6131.0   443.965      9.3219   9.5191     0.0   22.0964
6161    6141.0   444.365      9.3219   9.5192     0.0   22.1079
6171    6151.0   444.765      9.3217   9.5189     0.0   22.0904
6181    6161.0   445.165      9.3217   9.5189     0.0   22.0909
6191    6171.0   445.565      9.3216   9.5188     0.0   22.0953
6201    6181.0   445.965      9.3221   9.5193     0.0   22.0852
6211    6191.0   446.365      9.3221   9.5194     0.0   22.0760
6221    6201.0   446.765      9.3222   9.5194     0.0   22.0684
6231    6211.0   447.165      9.3221   9.5194     0.0   22.0411
6241    6221.0   447.565      9.3220   9.5192     0.0   22.0365
6251    6231.0   447.965      9.3223   9.5195     0.0   22.0304
6261    6241.0   448.365      9.3223   9.5195     0.0   22.0267
6271    6251.0   448.765      9.3221   9.5193     0.0   22.0252
6281    6261.0   449.165      9.3214   9.5186     0.0   22.0297
6291    6271.0   449.565      9.3217   9.5189     0.0   22.0272
6301    6281.0   449.965      9.3219   9.5192     0.0   22.0235
6311    6291.0   450.365      9.3220   9.5192     0.0   22.0209
6321    6301.0   450.765      9.3222   9.5194     0.0   22.0168
6331    6311.0   451.165      9.3223   9.5195     0.0   22.0128
6341    6321.0   451.565      9.3219   9.5192     0.0   22.0096
6351    6331.0   451.965      9.3217   9.5190     0.0   22.0094
6361    6341.0   452.365      9.3220   9.5192     0.0   21.9904
6371    6351.0   452.765      9.3219   9.5191     0.0   21.9888
6381    6361.0   453.165      9.3222   9.5194     0.0   21.9904
6391    6371.0   453.565      9.3220   9.5192     0.0   21.9825
6401    6381.0   453.965      9.3220   9.5192     0.0   21.9825
6411    6391.0   454.365      9.3223   9.5195     0.0   21.9818
6421    6401.0   454.765      9.3217   9.5190     0.0   21.9734
6431    6411.0   455.165      9.3221   9.5193     0.0   21.9687
6441    6421.0   455.565      9.3221   9.5193     0.0   21.9617
6451    6431.0   455.965      9.3220   9.5193     0.0   21.9576
6461    6441.0   456.365      9.3216   9.5189     0.0   21.9608
6471    6451.0   456.765      9.3219   9.5192     0.0   21.9519
6488    6461.0   457.235      9.3227   9.5199     0.0   21.9728
6498    6471.0   457.635      9.3375   9.5347     0.0   22.3542
6508    6481.0   458.035      9.3513   9.5486     0.0   22.6654
6518    6491.0   458.435      9.3645   9.5617     0.0   22.9749
6528    6501.0   458.835      9.3775   9.5747     0.0   23.2254
6538    6511.0   459.235      9.3905   9.5878     0.0   23.4783
6548    6521.0   459.635      9.4038   9.6010     0.0   23.7419
6558    6531.0   460.035      9.4175   9.6147     0.0   23.9872
6568    6541.0   460.435      9.4307   9.6279     0.0   24.2354
6578    6551.0   460.835      9.4443   9.6416     0.0   24.4630
6588    6561.0   461.235      9.4572   9.6545     0.0   24.6794
6598    6571.0   461.635      9.4705   9.6677     0.0   24.9083
6608    6581.0   462.035      9.4841   9.6813     0.0   25.1061
6618    6591.0   462.435      9.4972   9.6944     0.0   25.3045
6628    6601.0   462.835      9.5109   9.7082     0.0   25.4948
6638    6611.0   463.235      9.5240   9.7212     0.0   25.7164
6648    6621.0   463.635      9.5373   9.7345     0.0   25.8945
6658    6631.0   464.035      9.5502   9.7474     0.0   26.0690
6668    6641.0   464.435      9.5642   9.7614     0.0   26.2561
6678    6651.0   464.835      9.5773   9.7745     0.0   26.4181
6688    6661.0   465.235      9.5910   9.7883     0.0   26.5839
6698    6671.0   465.635      9.6045   9.8017     0.0   26.7511
6708    6681.0   466.035      9.6175   9.8148     0.0   26.9021
6718    6691.0   466.435      9.6305   9.8277     0.0   27.0355
6728    6701.0   466.835      9.6441   9.8413     0.0   27.1948
6738    6711.0   467.235      9.6570   9.8543     0.0   27.3514
6748    6721.0   467.635      9.6710   9.8682     0.0   27.5010
6758    6731.0   468.035      9.6835   9.8808     0.0   27.6388
6768    6741.0   468.435      9.6969   9.8941     0.0   27.7676
6778    6751.0   468.835      9.7103   9.9075     0.0   27.9148
6788    6761.0   469.235      9.7235   9.9207     0.0   28.0545
6798    6771.0   469.635      9.7379   9.9351     0.0   28.1937
6808    6781.0   470.035      9.7504   9.9476     0.0   28.3301
6818    6791.0   470.435      9.7641   9.9613     0.0   28.4717
6828    6801.0   470.835      9.7767   9.9740     0.0   28.6032
6838    6811.0   471.235      9.7904   9.9876     0.0   28.7276
6848    6821.0   471.635      9.8034  10.0006     0.0   28.8740
6858    6831.0   472.035      9.8168  10.0140     0.0   29.0176
6868    6841.0   472.435      9.8306  10.0278     0.0   29.1394
6878    6851.0   472.835      9.8436  10.0408     0.0   29.2667
6888    6861.0   473.235      9.8570  10.0543     0.0   29.4220
6898    6871.0   473.635      9.8705  10.0677     0.0   29.5420
6908    6881.0   474.035      9.8842  10.0814     0.0   29.6884
6918    6891.0   474.435      9.8974  10.0947     0.0   29.8155
6928    6901.0   474.835      9.9101  10.1073     0.0   29.9495
6938    6911.0   475.235      9.9236  10.1208     0.0   30.0557
6948    6921.0   475.635      9.9372  10.1344     0.0   30.2040
6958    6931.0   476.035      9.9505  10.1477     0.0   30.3405
6968    6941.0   476.435      9.9639  10.1611     0.0   30.4629
6978    6951.0   476.835      9.9777  10.1749     0.0   30.5946
6988    6961.0   477.235      9.9909  10.1882     0.0   30.7374
6998    6971.0   477.635     10.0038  10.2010     0.0   30.8527
7008    6981.0   478.035     10.0172  10.2145     0.0   30.9882
7018    6991.0   478.435     10.0307  10.2279     0.0   31.1160
7028    7001.0   478.835     10.0435  10.2408     0.0   31.2454
7038    7011.0   479.235     10.0574  10.2546     0.0   31.3762
7048    7021.0   479.635     10.0704  10.2676     0.0   31.5095
7058    7031.0   480.035     10.0840  10.2812     0.0   31.6502
7068    7041.0   480.435     10.0975  10.2947     0.0   31.7728
7078    7051.0   480.835     10.1104  10.3077     0.0   31.9148
7088    7061.0   481.235     10.1238  10.3210     0.0   32.0243
7098    7071.0   481.635     10.1375  10.3347     0.0   32.1746
7108    7081.0   482.035     10.1504  10.3476     0.0   32.2998
7118    7091.0   482.435     10.1639  10.3612     0.0   32.4108
7128    7101.0   482.835     10.1771  10.3743     0.0   32.5494
7138    7111.0   483.235     10.1909  10.3881     0.0   32.6652
7148    7121.0   483.635     10.2043  10.4016     0.0   32.7839
7158    7131.0   484.035     10.2167  10.4140     0.0   32.9247
7168    7141.0   484.435     10.2303  10.4276     0.0   33.0534
7178    7151.0   484.835     10.2440  10.4412     0.0   33.1827
7188    7161.0   485.235     10.2575  10.4547     0.0   33.3174
7198    7171.0   485.635     10.2704  10.4677     0.0   33.4596
7208    7181.0   486.035     10.2836  10.4809     0.0   33.5606
7218    7191.0   486.435     10.2968  10.4940     0.0   33.7012
7228    7201.0   486.835     10.3103  10.5076     0.0   33.8176
7238    7211.0   487.235     10.3241  10.5213     0.0   33.9612
7248    7221.0   487.635     10.3370  10.5342     0.0   34.0973
7258    7231.0   488.035     10.3506  10.5478     0.0   34.2164
7268    7241.0   488.435     10.3637  10.5609     0.0   34.3430
7278    7251.0   488.835     10.3770  10.5742     0.0   34.4641
7288    7261.0   489.235     10.3906  10.5878     0.0   34.6100
7298    7271.0   489.635     10.4031  10.6004     0.0   34.7318
7308    7281.0   490.035     10.4171  10.6144     0.0   34.8594
7318    7291.0   490.435     10.4306  10.6278     0.0   34.9830
7334    7301.0   490.865     10.4128  10.6101     0.0   34.4016
7344    7311.0   491.265     10.4135  10.6107     0.0   34.3431
7354    7321.0   491.665     10.4131  10.6103     0.0   34.2675
7364    7331.0   492.065     10.4133  10.6105     0.0   34.2254
7374    7341.0   492.465     10.4130  10.6102     0.0   34.1609
7384    7351.0   492.865     10.4135  10.6107     0.0   34.1146
7394    7361.0   493.265     10.4143  10.6115     0.0   34.0671
7404    7371.0   493.665     10.4131  10.6103     0.0   34.0063
7414    7381.0   494.065     10.4138  10.6110     0.0   33.9574
7424    7391.0   494.465     10.4131  10.6103     0.0   33.8991
7434    7401.0   494.865     10.4137  10.6109     0.0   33.8755
7444    7411.0   495.265     10.4137  10.6109     0.0   33.8439
7454    7421.0   495.665     10.4129  10.6101     0.0   33.8074
7464    7431.0   496.065     10.4133  10.6106     0.0   33.7803
7474    7441.0   496.465     10.4135  10.6107     0.0   33.7356
7484    7451.0   496.865     10.4138  10.6110     0.0   33.6944
7494    7461.0   497.265     10.4135  10.6107     0.0   33.6631
7504    7471.0   497.665     10.4133  10.6106     0.0   33.6406
7514    7481.0   498.065     10.4134  10.6106     0.0   33.6099
7524    7491.0   498.465     10.4131  10.6103     0.0   33.5888
7534    7501.0   498.865     10.4132  10.6104     0.0   33.5764
7544    7511.0   499.265     10.4132  10.6104     0.0   33.5409
7554    7521.0   499.665     10.4135  10.6107     0.0   33.5085
7564    7531.0   500.065     10.4131  10.6103     0.0   33.4786
7574    7541.0   500.465     10.4136  10.6108     0.0   33.4550
7584    7551.0   500.865     10.4132  10.6104     0.0   33.4384
7594    7561.0   501.265     10.4138  10.6110     0.0   33.4090
7604    7571.0   501.665     10.4135  10.6107     0.0   33.3834
7614    7581.0   502.065     10.4133  10.6105     0.0   33.3540
7624    7591.0   502.465     10.4133  10.6106     0.0   33.3277
7634    7601.0   502.865     10.4135  10.6107     0.0   33.3153
7644    7611.0   503.265     10.4133  10.6105     0.0   33.2879
7654    7621.0   503.665     10.4140  10.6112     0.0   33.2684
7664    7631.0   504.065     10.4130  10.6103     0.0   33.2619
7674    7641.0   504.465     10.4133  10.6105     0.0   33.2495
7684    7651.0   504.865     10.4136  10.6108     0.0   33.2303
7694    7661.0   505.265     10.4135  10.6108     0.0   33.2046
7704    7671.0   505.665     10.4137  10.6109     0.0   33.1835
7714    7681.0   506.065     10.4138  10.6110     0.0   33.1511
7724    7691.0   506.465     10.4133  10.6105     0.0   33.1429
7734    7701.0   506.865     10.4133  10.6106     0.0   33.1074
7744    7711.0   507.265     10.4134  10.6106     0.0   33.0954
7754    7721.0   507.665     10.4134  10.6106     0.0   33.0669
7764    7731.0   508.065     10.4133  10.6105     0.0   33.0551
7775    7741.0   508.465     10.4132  10.6105     0.0   33.0448
7785    7751.0   508.865     10.4136  10.6108     0.0   33.0262
7795    7761.0   509.265     10.4133  10.6105     0.0   33.0063
7805    7771.0   509.665     10.4134  10.6106     0.0   33.0007
7815    7781.0   510.065     10.4135  10.6108     0.0   32.9936
7825    7791.0   510.465     10.4130  10.6102     0.0   32.9476
7835    7801.0   510.865     10.4133  10.6106     0.0   32.9377
7845    7811.0   511.265     10.4135  10.6107     0.0   32.9250
7855    7821.0   511.665     10.4136  10.6108     0.0   32.9172
7865    7831.0   512.065     10.4137  10.6109     0.0   32.9163
7875    7841.0   512.465     10.4134  10.6106     0.0   32.8892
7885    7851.0   512.865     10.4130  10.6102     0.0   32.8643
7895    7861.0   513.265     10.4129  10.6101     0.0   32.8669
7905    7871.0   513.665     10.4137  10.6109     0.0   32.8638
7915    7881.0   514.065     10.4135  10.6107     0.0   32.8508
7925    7891.0   514.465     10.4138  10.6111     0.0   32.8287
7935    7901.0   514.865     10.4133  10.6105     0.0   32.8191
7945    7911.0   515.265     10.4139  10.6111     0.0   32.7971
7955    7921.0   515.665     10.4128  10.6101     0.0   32.7860
7965    7931.0   516.065     10.4136  10.6108     0.0   32.7820
7975    7941.0   516.465     10.4133  10.6105     0.0   32.7618
7985    7951.0   516.865     10.4133  10.6105     0.0   32.7545
7995    7961.0   517.265     10.4136  10.6108     0.0   32.7453
8005    7971.0   517.665     10.4137  10.6109     0.0   32.7227
8015    7981.0   518.065     10.4138  10.6110     0.0   32.7135
8025    7991.0   518.465     10.4131  10.6104     0.0   32.7004
8035    8001.0   518.865     10.4136  10.6108     0.0   32.6827
8045    8011.0   519.265     10.4137  10.6110     0.0   32.6761
8055    8021.0   519.665     10.4132  10.6105     0.0   32.6655
8065    8031.0   520.065     10.4131  10.6104     0.0   32.6604
8075    8041.0   520.465     10.4135  10.6107     0.0   32.6514
8085    8051.0   520.865     10.4135  10.6107     0.0   32.6334
8095    8061.0   521.265     10.4135  10.6107     0.0   32.6075
8105    8071.0   521.665     10.4132  10.6105     0.0   32.5941
8115    8081.0   522.065     10.4132  10.6104     0.0   32.5951
8125    8091.0   522.465     10.4136  10.6108     0.0   32.5939
8135    8101.0   522.865     10.4137  10.6109     0.0   32.5657
8145    8111.0   523.265     10.4134  10.6107     0.0   32.5350
8155    8121.0   523.665     10.4134  10.6106     0.0   32.5291
8165    8131.0   524.065     10.4131  10.6103     0.0   32.5042
8175    8141.0   524.465     10.4129  10.6101     0.0   32.4765
8185    8151.0   524.865     10.4131  10.6103     0.0   32.4739
8195    8161.0   525.265     10.4137  10.6109     0.0   32.4519
8205    8171.0   525.665     10.4138  10.6110     0.0   32.4523
8215    8181.0   526.065     10.4131  10.6103     0.0   32.4466
8225    8191.0   526.465     10.4136  10.6109     0.0   32.4389
8235    8201.0   526.865     10.4138  10.6110     0.0   32.4274
8245    8211.0   527.265     10.4132  10.6105     0.0   32.4135
8255    8221.0   527.665     10.4137  10.6110     0.0   32.4043
8265    8231.0   528.065     10.4129  10.6101     0.0   32.3842
8275    8241.0   528.465     10.4139  10.6111     0.0   32.3739
8285    8251.0   528.865     10.4130  10.6102     0.0   32.3684
8295    8261.0   529.265     10.4138  10.6111     0.0   32.3606
8305    8271.0   529.665     10.4131  10.6103     0.0   32.3396
8315    8281.0   530.065     10.4140  10.6113     0.0   32.3433
8325    8291.0   530.465     10.4132  10.6104     0.0   32.3396
8335    8301.0   530.865     10.4134  10.6107     0.0   32.3333
8345    8311.0   531.265     10.4138  10.6110     0.0   32.3336
8355    8321.0   531.665     10.4136  10.6108     0.0   32.3367
8365    8331.0   532.065     10.4136  10.6108     0.0   32.3196
8375    8341.0   532.465     10.4137  10.6109     0.0   32.3053
8385    8351.0   532.865     10.4133  10.6106     0.0   32.2873
8395    8361.0   533.265     10.4129  10.6101     0.0   32.2980
8405    8371.0   533.665     10.4134  10.6106     0.0   32.2860
8415    8381.0   534.065     10.4132  10.6104     0.0   32.2608
8425    8391.0   534.465     10.4136  10.6109     0.0   32.2588
8435    8401.0   534.865     10.4131  10.6103     0.0   32.2359
8445    8411.0   535.265     10.4133  10.6106     0.0   32.2198
8455    8421.0   535.665     10.4133  10.6105     0.0   32.2212
8465    8431.0   536.065     10.4137  10.6109     0.0   32.2345
8475    8441.0   536.465     10.4138  10.6110     0.0   32.2214
8485    8451.0   536.865     10.4140  10.6112     0.0   32.2004
8495    8461.0   537.265     10.4134  10.6106     0.0   32.1911
8505    8471.0   537.665     10.4135  10.6108     0.0   32.1970
8515    8481.0   538.065     10.4137  10.6109     0.0   32.1959
8525    8491.0   538.465     10.4132  10.6105     0.0   32.1635
8535    8501.0   538.865     10.4132  10.6104     0.0   32.1550
8545    8511.0   539.265     10.4124  10.6096     0.0   32.1525
8555    8521.0   539.665     10.4139  10.6111     0.0   32.1748
8565    8531.0   540.065     10.4131  10.6103     0.0   32.1487
8575    8541.0   540.465     10.4133  10.6106     0.0   32.1476
8585    8551.0   540.865     10.4133  10.6106     0.0   32.1468
8595    8561.0   541.265     10.4138  10.6110     0.0   32.1469
8605    8571.0   541.665     10.4135  10.6107     0.0   32.1263
8615    8581.0   542.065     10.4143  10.6116     0.0   32.0930
8625    8591.0   542.465     10.4137  10.6109     0.0   32.1111
8635    8601.0   542.865     10.4138  10.6111     0.0   32.0832
8645    8611.0   543.265     10.4135  10.6107     0.0   32.1086
8655    8621.0   543.665     10.4135  10.6107     0.0   32.0876
8665    8631.0   544.065     10.4138  10.6110     0.0   32.1086
8675    8641.0   544.465     10.4137  10.6109     0.0   32.1124
8685    8651.0   544.865     10.4130  10.6103     0.0   32.0960
8695    8661.0   545.265     10.4138  10.6110     0.0   32.0889
8705    8671.0   545.665     10.4137  10.6109     0.0   32.0865
8715    8681.0   546.065     10.4141  10.6113     0.0   32.0935
8725    8691.0   546.465     10.4138  10.6110     0.0   32.0804
8735    8701.0   546.865     10.4133  10.6105     0.0   32.0749
8745    8711.0   547.265     10.4137  10.6109     0.0   32.0731
8755    8721.0   547.665     10.4133  10.6105     0.0   32.0697
8765    8731.0   548.065     10.4132  10.6104     0.0   32.0625
8775    8741.0   548.465     10.4136  10.6109     0.0   32.0443
8785    8751.0   548.865     10.4142  10.6114     0.0   32.0452
8795    8761.0   549.265     10.4134  10.6107     0.0   32.0410
8805    8771.0   549.665     10.4138  10.6110     0.0   31.9871
8815    8781.0   550.065     10.4136  10.6108     0.0   31.9590
8825    8791.0   550.465     10.4140  10.6112     0.0   31.9659
8835    8801.0   550.865     10.4136  10.6109     0.0   31.9539
8845    8811.0   551.265     10.4130  10.6102     0.0   31.9450
8855    8821.0   551.665     10.4133  10.6105     0.0   31.9615
8865    8831.0   552.065     10.4137  10.6109     0.0   31.9463
8875    8841.0   552.465     10.4140  10.6112     0.0   31.9129
8885    8851.0   552.865     10.4134  10.6106     0.0   31.9109
8895    8861.0   553.265     10.4137  10.6110     0.0   31.8927
8905    8871.0   553.665     10.4137  10.6109     0.0   31.9088
8915    8881.0   554.065     10.4139  10.6111     0.0   31.8798
8925    8891.0   554.465     10.4132  10.6105     0.0   31.8846
8935    8901.0   554.865     10.4136  10.6108     0.0   31.8831
8945    8911.0   555.265     10.4139  10.6111     0.0   31.8737
8955    8921.0   555.665     10.4137  10.6109     0.0   31.8568
8965    8931.0   556.065     10.4136  10.6108     0.0   31.8704
8975    8941.0   556.465     10.4133  10.6106     0.0   31.8451
8985    8951.0   556.865     10.4132  10.6105     0.0   31.8712
8995    8961.0   557.265     10.4137  10.6110     0.0   31.8742
9005    8971.0   557.665     10.4134  10.6106     0.0   31.8280
9015    8981.0   558.065     10.4137  10.6109     0.0   31.8191
9025    8991.0   558.465     10.4136  10.6108     0.0   31.8095
9035    9001.0   558.865     10.4137  10.6109     0.0   31.7918
9045    9011.0   559.265     10.4141  10.6113     0.0   31.7698
9055    9021.0   559.665     10.4138  10.6110     0.0   31.7709
9065    9031.0   560.065     10.4133  10.6105     0.0   31.7748
9075    9041.0   560.465     10.4138  10.6110     0.0   31.7629
9085    9051.0   560.865     10.4139  10.6111     0.0   31.7707
9095    9061.0   561.265     10.4130  10.6102     0.0   31.7487
9105    9071.0   561.665     10.4130  10.6102     0.0   31.7562
9115    9081.0   562.065     10.4133  10.6105     0.0   31.7557
9125    9091.0   562.465     10.4139  10.6111     0.0   31.7331
9135    9101.0   562.865     10.4136  10.6109     0.0   31.7213
9145    9111.0   563.265     10.4132  10.6104     0.0   31.7323
9155    9121.0   563.665     10.4138  10.6111     0.0   31.7293
9165    9131.0   564.065     10.4137  10.6109     0.0   31.7425
9175    9141.0   564.465     10.4135  10.6107     0.0   31.7336
9185    9151.0   564.865     10.4137  10.6110     0.0   31.7182
9195    9161.0   565.265     10.4136  10.6109     0.0   31.7141
9205    9171.0   565.665     10.4134  10.6107     0.0   31.7095
9215    9181.0   566.065     10.4132  10.6104     0.0   31.7118
9225    9191.0   566.465     10.4132  10.6105     0.0   31.7077
9235    9201.0   566.865     10.4135  10.6107     0.0   31.7010
9245    9211.0   567.265     10.4131  10.6103     0.0   31.6879
9255    9221.0   567.665     10.4134  10.6106     0.0   31.6861
9265    9231.0   568.065     10.4136  10.6108     0.0   31.6824
9275    9241.0   568.465     10.4140  10.6112     0.0   31.6765
9285    9251.0   568.865     10.4137  10.6109     0.0   31.6552
9295    9261.0   569.265     10.4135  10.6107     0.0   31.6480
9305    9271.0   569.665     10.4139  10.6112     0.0   31.6517
9315    9281.0   570.065     10.4138  10.6111     0.0   31.6501
9325    9291.0   570.465     10.4139  10.6111     0.0   31.6458
9335    9301.0   570.865     10.4137  10.6109     0.0   31.6217
9345    9311.0   571.265     10.4141  10.6114     0.0   31.6120
9355    9321.0   571.665     10.4138  10.6111     0.0   31.6141
9365    9331.0   572.065     10.4141  10.6114     0.0   31.5934
9375    9341.0   572.465     10.4132  10.6105     0.0   31.5879
9385    9351.0   572.865     10.4135  10.6107     0.0   31.5860
9395    9361.0   573.265     10.4130  10.6102     0.0   31.5627
9405    9371.0   573.665     10.4135  10.6107     0.0   31.5972
9415    9381.0   574.065     10.4129  10.6101     0.0   31.5952
9425    9391.0   574.465     10.4136  10.6108     0.0   31.6161
9435    9401.0   574.865     10.4138  10.6110     0.0   31.6082
9445    9411.0   575.265     10.4144  10.6116     0.0   31.5908
9455    9421.0   575.665     10.4136  10.6108     0.0   31.5755
9465    9431.0   576.065     10.4136  10.6108     0.0   31.5782
9475    9441.0   576.465     10.4137  10.6109     0.0   31.5817
9485    9451.0   576.865     10.4137  10.6110     0.0   31.5900
9495    9461.0   577.265     10.4134  10.6107     0.0   31.5922
9505    9471.0   577.665     10.4139  10.6111     0.0   31.5701
9515    9481.0   578.065     10.4141  10.6113     0.0   31.5731
9525    9491.0   578.465     10.4141  10.6113     0.0   31.5699
9535    9501.0   578.865     10.4135  10.6107     0.0   31.5579
9545    9511.0   579.265     10.4138  10.6110     0.0   31.5578
9555    9521.0   579.665     10.4138  10.6110     0.0   31.5467
9565    9531.0   580.065     10.4136  10.6109     0.0   31.5318
9575    9541.0   580.465     10.4142  10.6114     0.0   31.5313
9585    9551.0   580.865     10.4134  10.6106     0.0   31.5126
9595    9561.0   581.265     10.4139  10.6111     0.0   31.5149
9605    9571.0   581.665     10.4137  10.6110     0.0   31.5236
9615    9581.0   582.065     10.4133  10.6105     0.0   31.5210
9625    9591.0   582.465     10.4135  10.6107     0.0   31.5195
9635    9601.0   582.865     10.4135  10.6107     0.0   31.5135
9645    9611.0   583.265     10.4133  10.6106     0.0   31.5183
9655    9621.0   583.665     10.4130  10.6102     0.0   31.5147
9665    9631.0   584.065     10.4137  10.6109     0.0   31.5151
9675    9641.0   584.465     10.4140  10.6112     0.0   31.4969
9685    9651.0   584.865     10.4140  10.6112     0.0   31.4844
9695    9661.0   585.265     10.4138  10.6110     0.0   31.4835
9705    9671.0   585.665     10.4137  10.6109     0.0   31.4745
9715    9681.0   586.065     10.4135  10.6107     0.0   31.4733
9725    9691.0   586.465     10.4133  10.6105     0.0   31.4668
9735    9701.0   586.865     10.4143  10.6115     0.0   31.4575
9745    9711.0   587.265     10.4133  10.6105     0.0   31.4503
9755    9721.0   587.665     10.4137  10.6109     0.0   31.4380
9765    9731.0   588.065     10.4136  10.6109     0.0   31.4355
9775    9741.0   588.465     10.4136  10.6108     0.0   31.4307
9785    9751.0   588.865     10.4136  10.6109     0.0   31.4231
9795    9761.0   589.265     10.4141  10.6113     0.0   31.4250
9805    9771.0   589.665     10.4134  10.6107     0.0   31.4170
9815    9781.0   590.065     10.4138  10.6110     0.0   31.4145
9825    9791.0   590.465     10.4139  10.6111     0.0   31.4049
9835    9801.0   590.865     10.4139  10.6111     0.0   31.4013
9845    9811.0   591.265     10.4135  10.6107     0.0   31.3923
9855    9821.0   591.665     10.4130  10.6103     0.0   31.3942
9865    9831.0   592.065     10.4139  10.6111     0.0   31.3930
9875    9841.0   592.465     10.4136  10.6108     0.0   31.3897
9885    9851.0   592.865     10.4134  10.6107     0.0   31.3875
9895    9861.0   593.265     10.4139  10.6112     0.0   31.3840
9905    9871.0   593.665     10.4139  10.6111     0.0   31.3772
9915    9881.0   594.065     10.4138  10.6110     0.0   31.3773
9925    9891.0   594.465     10.4133  10.6106     0.0   31.3702
9935    9901.0   594.865     10.4138  10.6110     0.0   31.3638
9945    9911.0   595.265     10.4134  10.6106     0.0   31.3660
9955    9921.0   595.665     10.4137  10.6110     0.0   31.3702
9965    9931.0   596.065     10.4136  10.6109     0.0   31.3553
9975    9941.0   596.465     10.4145  10.6117     0.0   31.3408
9985    9951.0   596.865     10.4134  10.6106     0.0   31.3437
9995    9961.0   597.265     10.4139  10.6111     0.0   31.3181
10005   9971.0   597.665     10.4131  10.6103     0.0   31.3199
10015   9981.0   598.065     10.4133  10.6106     0.0   31.3245
10025   9991.0   598.465     10.4144  10.6116     0.0   31.3176
10035  10001.0   598.865     10.4141  10.6114     0.0   31.2990
10045  10011.0   599.265     10.4131  10.6103     0.0   31.3109
10055  10021.0   599.665     10.4137  10.6109     0.0   31.3190
10065  10031.0   600.065     10.4135  10.6107     0.0   31.3162
10075  10041.0   600.465     10.4140  10.6113     0.0   31.3102
10085  10051.0   600.865     10.4136  10.6108     0.0   31.2930
10095  10061.0   601.265     10.4136  10.6108     0.0   31.2869
10105  10071.0   601.665     10.4143  10.6116     0.0   31.2873
10115  10081.0   602.065     10.4146  10.6118     0.0   31.2719
10125  10091.0   602.465     10.4137  10.6109     0.0   31.2914
10135  10101.0   602.865     10.4141  10.6113     0.0   31.2716
10145  10111.0   603.265     10.4141  10.6113     0.0   31.2863
10155  10121.0   603.665     10.4134  10.6106     0.0   31.2770
10165  10131.0   604.065     10.4137  10.6109     0.0   31.2800
10175  10141.0   604.465     10.4139  10.6112     0.0   31.2724
10185  10151.0   604.865     10.4134  10.6106     0.0   31.2705
10195  10161.0   605.265     10.4145  10.6117     0.0   31.2885
10205  10171.0   605.665     10.4137  10.6109     0.0   31.2737
10215  10181.0   606.065     10.4140  10.6112     0.0   31.2685
10225  10191.0   606.465     10.4145  10.6118     0.0   31.2751
10235  10201.0   606.865     10.4142  10.6114     0.0   31.2627
10245  10211.0   607.265     10.4137  10.6109     0.0   31.2595
10255  10221.0   607.665     10.4134  10.6106     0.0   31.2497
10265  10231.0   608.065     10.4143  10.6115     0.0   31.2562
10275  10241.0   608.465     10.4137  10.6109     0.0   31.2513
10285  10251.0   608.865     10.4140  10.6112     0.0   31.2392
10295  10261.0   609.265     10.4146  10.6118     0.0   31.2277
10305  10271.0   609.665     10.4140  10.6113     0.0   31.2205
10315  10281.0   610.065     10.4135  10.6108     0.0   31.2069
10325  10291.0   610.465     10.4143  10.6115     0.0   31.2122
10335  10301.0   610.865     10.4138  10.6110     0.0   31.1920
10345  10311.0   611.265     10.4136  10.6108     0.0   31.1963
10355  10321.0   611.665     10.4141  10.6113     0.0   31.1962
10365  10331.0   612.065     10.4137  10.6109     0.0   31.1939
10375  10341.0   612.465     10.4150  10.6122     0.0   31.1926
10385  10351.0   612.865     10.4136  10.6109     0.0   31.1832
10395  10361.0   613.265     10.4138  10.6111     0.0   31.1888
10405  10371.0   613.665     10.4137  10.6109     0.0   31.1793
10415  10381.0   614.065     10.4138  10.6110     0.0   31.1778
10425  10391.0   614.465     10.4138  10.6111     0.0   31.1651
10435  10401.0   614.865     10.4135  10.6107     0.0   31.1649
10445  10411.0   615.265     10.4139  10.6111     0.0   31.1519
10455  10421.0   615.665     10.4140  10.6112     0.0   31.1484
10465  10431.0   616.065     10.4140  10.6112     0.0   31.1444
10475  10441.0   616.465     10.4137  10.6109     0.0   31.1347
10485  10451.0   616.865     10.4141  10.6113     0.0   31.1276
10495  10461.0   617.265     10.4140  10.6112     0.0   31.1329
10505  10471.0   617.665     10.4139  10.6111     0.0   31.1397
10515  10481.0   618.065     10.4135  10.6108     0.0   31.1334
10525  10491.0   618.465     10.4131  10.6104     0.0   31.1397
10535  10501.0   618.865     10.4145  10.6118     0.0   31.1290
10545  10511.0   619.265     10.4134  10.6107     0.0   31.1166
10555  10521.0   619.665     10.4141  10.6113     0.0   31.1041
10565  10531.0   620.065     10.4137  10.6110     0.0   31.1066
10575  10541.0   620.465     10.4141  10.6113     0.0   31.1238
10585  10551.0   620.865     10.4138  10.6110     0.0   31.1145
10595  10561.0   621.265     10.4144  10.6116     0.0   31.0987
10605  10571.0   621.665     10.4140  10.6112     0.0   31.0773
10615  10581.0   622.065     10.4140  10.6112     0.0   31.0722
10625  10591.0   622.465     10.4139  10.6112     0.0   31.0724
10635  10601.0   622.865     10.4139  10.6112     0.0   31.0560
10645  10611.0   623.265     10.4138  10.6110     0.0   31.0435
10655  10621.0   623.665     10.4142  10.6115     0.0   31.0636
10665  10631.0   624.065     10.4138  10.6110     0.0   31.0530
10675  10641.0   624.465     10.4140  10.6112     0.0   31.0514
10685  10651.0   624.865     10.4146  10.6118     0.0   31.0283
10695  10661.0   625.265     10.4138  10.6110     0.0   31.0296
10705  10671.0   625.665     10.4134  10.6106     0.0   31.0174
10715  10681.0   626.065     10.4139  10.6111     0.0   31.0620
10725  10691.0   626.465     10.4135  10.6108     0.0   31.0455
10735  10701.0   626.865     10.4139  10.6112     0.0   31.0462
10745  10711.0   627.265     10.4139  10.6111     0.0   31.0360
10755  10721.0   627.665     10.4142  10.6114     0.0   31.0624
10765  10731.0   628.065     10.4134  10.6106     0.0   31.0242
10775  10741.0   628.465     10.4136  10.6108     0.0   30.9985
10785  10751.0   628.865     10.4135  10.6107     0.0   31.0055
10795  10761.0   629.265     10.4137  10.6109     0.0   30.9899
10805  10771.0   629.665     10.4136  10.6108     0.0   31.0052
10815  10781.0   630.065     10.4140  10.6112     0.0   31.0075
10825  10791.0   630.465     10.4140  10.6112     0.0   30.9823
10835  10801.0   630.865     10.4137  10.6109     0.0   30.9864
10845  10811.0   631.265     10.4139  10.6111     0.0   30.9874
10855  10821.0   631.665     10.4136  10.6108     0.0   30.9781
10865  10831.0   632.065     10.4142  10.6114     0.0   30.9742
10875  10841.0   632.465     10.4139  10.6112     0.0   30.9644
10885  10851.0   632.865     10.4138  10.6110     0.0   30.9732
10895  10861.0   633.265     10.4137  10.6109     0.0   30.9725
10905  10871.0   633.665     10.4140  10.6112     0.0   30.9902
10915  10881.0   634.065     10.4142  10.6114     0.0   30.9886
10925  10891.0   634.465     10.4133  10.6105     0.0   30.9944
10935  10901.0   634.865     10.4140  10.6112     0.0   30.9693
10945  10911.0   635.265     10.4140  10.6112     0.0   30.9744
10955  10921.0   635.665     10.4139  10.6112     0.0   30.9813
10965  10931.0   636.065     10.4135  10.6107     0.0   30.9345
10975  10941.0   636.465     10.4138  10.6111     0.0   30.9412
10985  10951.0   636.865     10.4138  10.6110     0.0   30.9517
10995  10961.0   637.265     10.4136  10.6108     0.0   30.9520
11005  10971.0   637.665     10.4140  10.6112     0.0   30.9372
11015  10981.0   638.065     10.4141  10.6113     0.0   30.9258
11025  10991.0   638.465     10.4138  10.6111     0.0   30.9569
11035  11001.0   638.865     10.4134  10.6106     0.0   30.9481
11045  11011.0   639.265     10.4138  10.6111     0.0   30.9362
11055  11021.0   639.665     10.4139  10.6111     0.0   30.9375
11065  11031.0   640.065     10.4139  10.6111     0.0   30.9387
11075  11041.0   640.465     10.4142  10.6114     0.0   30.9353
11085  11051.0   640.865     10.4140  10.6112     0.0   30.9242
11095  11061.0   641.265     10.4135  10.6107     0.0   30.9331
11105  11071.0   641.665     10.4143  10.6115     0.0   30.9311
11115  11081.0   642.065     10.4137  10.6109     0.0   30.9238
11125  11091.0   642.465     10.4137  10.6109     0.0   30.9318
11135  11101.0   642.865     10.4138  10.6110     0.0   30.9274
11145  11111.0   643.265     10.4134  10.6107     0.0   30.9182
11155  11121.0   643.665     10.4139  10.6111     0.0   30.9263
11165  11131.0   644.065     10.4135  10.6107     0.0   30.9053
11175  11141.0   644.465     10.4132  10.6105     0.0   30.9155
11185  11151.0   644.865     10.4140  10.6113     0.0   30.8992
11195  11161.0   645.265     10.4137  10.6109     0.0   30.8710
11205  11171.0   645.665     10.4137  10.6109     0.0   30.8905
11215  11181.0   646.065     10.4135  10.6108     0.0   30.8732
11225  11191.0   646.465     10.4136  10.6109     0.0   30.8850
11235  11201.0   646.865     10.4140  10.6112     0.0   30.8619
11245  11211.0   647.265     10.4140  10.6112     0.0   30.8545
11255  11221.0   647.665     10.4139  10.6112     0.0   30.8460
11265  11231.0   648.065     10.4138  10.6110     0.0   30.8503
11275  11241.0   648.465     10.4138  10.6110     0.0   30.8567
11285  11251.0   648.865     10.4139  10.6111     0.0   30.8517
11295  11261.0   649.265     10.4136  10.6109     0.0   30.8423
11305  11271.0   649.665     10.4139  10.6112     0.0   30.8508
11315  11281.0   650.065     10.4141  10.6113     0.0   30.8441
11325  11291.0   650.465     10.4139  10.6111     0.0   30.8362
11335  11301.0   650.865     10.4138  10.6111     0.0   30.8460
11345  11311.0   651.265     10.4138  10.6111     0.0   30.8429
11355  11321.0   651.665     10.4141  10.6113     0.0   30.8441
11365  11331.0   652.065     10.4141  10.6113     0.0   30.8358
11375  11341.0   652.465     10.4139  10.6112     0.0   30.8366
11385  11351.0   652.865     10.4139  10.6111     0.0   30.8247
11395  11361.0   653.265     10.4140  10.6112     0.0   30.8138
11405  11371.0   653.665     10.4141  10.6113     0.0   30.8309
11415  11381.0   654.065     10.4144  10.6116     0.0   30.8294
11432  11391.0   654.505     10.4230  10.6202     0.0   31.0371
11442  11401.0   654.905     10.4360  10.6332     0.0   31.4046
11452  11411.0   655.305     10.4486  10.6458     0.0   31.7142
11462  11421.0   655.705     10.4624  10.6596     0.0   32.0688
11472  11431.0   656.105     10.4762  10.6734     0.0   32.3816
11482  11441.0   656.505     10.4894  10.6866     0.0   32.6649
11492  11451.0   656.905     10.5027  10.7000     0.0   32.9694
11502  11461.0   657.305     10.5161  10.7133     0.0   33.2272
11512  11471.0   657.705     10.5291  10.7263     0.0   33.4819
11522  11481.0   658.105     10.5429  10.7401     0.0   33.7430
11532  11491.0   658.505     10.5560  10.7533     0.0   33.9985
11542  11501.0   658.905     10.5694  10.7667     0.0   34.2472
11552  11511.0   659.305     10.5818  10.7790     0.0   34.4596
11562  11521.0   659.705     10.5959  10.7931     0.0   34.7060
11572  11531.0   660.105     10.6088  10.8060     0.0   34.9255
11582  11541.0   660.505     10.6228  10.8200     0.0   35.1427
11592  11551.0   660.905     10.6355  10.8327     0.0   35.3473
11602  11561.0   661.305     10.6490  10.8462     0.0   35.5613
11612  11571.0   661.705     10.6628  10.8600     0.0   35.7607
11622  11581.0   662.105     10.6762  10.8734     0.0   35.9529
11632  11591.0   662.505     10.6893  10.8865     0.0   36.1431
11642  11601.0   662.905     10.7021  10.8993     0.0   36.3367
11652  11611.0   663.305     10.7156  10.9128     0.0   36.5236
11662  11621.0   663.705     10.7296  10.9268     0.0   36.6814
11672  11631.0   664.105     10.7427  10.9399     0.0   36.8422
11682  11641.0   664.505     10.7558  10.9530     0.0   37.0114
11692  11651.0   664.905     10.7688  10.9661     0.0   37.1568
11702  11661.0   665.305     10.7823  10.9795     0.0   37.3089
11712  11671.0   665.705     10.7965  10.9937     0.0   37.4726
11722  11681.0   666.105     10.8090  11.0063     0.0   37.6207
11732  11691.0   666.505     10.8221  11.0193     0.0   37.7647
11742  11701.0   666.905     10.8355  11.0327     0.0   37.9004
11752  11711.0   667.305     10.8494  11.0467     0.0   38.0438
11762  11721.0   667.705     10.8624  11.0596     0.0   38.1911
11772  11731.0   668.105     10.8760  11.0733     0.0   38.3152
11782  11741.0   668.505     10.8893  11.0865     0.0   38.4419
11792  11751.0   668.905     10.9024  11.0996     0.0   38.5667
11802  11761.0   669.305     10.9161  11.1133     0.0   38.6840
11812  11771.0   669.705     10.9293  11.1266     0.0   38.8140
11822  11781.0   670.105     10.9425  11.1397     0.0   38.9571
11832  11791.0   670.505     10.9554  11.1526     0.0   39.0519
11842  11801.0   670.905     10.9695  11.1668     0.0   39.1801
11852  11811.0   671.305     10.9825  11.1797     0.0   39.2866
11862  11821.0   671.705     10.9959  11.1931     0.0   39.4050
11872  11831.0   672.105     11.0091  11.2064     0.0   39.5051
11882  11841.0   672.505     11.0226  11.2199     0.0   39.6144
11892  11851.0   672.905     11.0359  11.2331     0.0   39.7161
11902  11861.0   673.305     11.0490  11.2463     0.0   39.8351
11912  11871.0   673.705     11.0625  11.2597     0.0   39.9370
11922  11881.0   674.105     11.0754  11.2726     0.0   40.0459
11932  11891.0   674.505     11.0893  11.2865     0.0   40.1428
11942  11901.0   674.905     11.1020  11.2992     0.0   40.2260
11952  11911.0   675.305     11.1155  11.3127     0.0   40.3348
11962  11921.0   675.705     11.1288  11.3261     0.0   40.4247
11972  11931.0   676.105     11.1421  11.3394     0.0   40.5208
11982  11941.0   676.505     11.1554  11.3526     0.0   40.6020
11992  11951.0   676.905     11.1690  11.3662     0.0   40.7165
12002  11961.0   677.305     11.1826  11.3798     0.0   40.7956
12012  11971.0   677.705     11.1960  11.3932     0.0   40.8843
12022  11981.0   678.105     11.2097  11.4069     0.0   40.9735
12032  11991.0   678.505     11.2224  11.4196     0.0   41.0297
12042  12001.0   678.905     11.2355  11.4327     0.0   41.1192
12052  12011.0   679.305     11.2489  11.4462     0.0   41.2002
12062  12021.0   679.705     11.2625  11.4597     0.0   41.2655
12072  12031.0   680.105     11.2760  11.4733     0.0   41.3533
12082  12041.0   680.505     11.2894  11.4866     0.0   41.4525
12092  12051.0   680.905     11.3026  11.4998     0.0   41.5165
12102  12061.0   681.305     11.3157  11.5129     0.0   41.5745
12112  12071.0   681.705     11.3291  11.5263     0.0   41.6412
12122  12081.0   682.105     11.3421  11.5393     0.0   41.7166
12132  12091.0   682.505     11.3559  11.5532     0.0   41.7946
12142  12101.0   682.905     11.3688  11.5660     0.0   41.8476
12152  12111.0   683.305     11.3824  11.5797     0.0   41.9067
12162  12121.0   683.705     11.3956  11.5929     0.0   41.9597
12172  12131.0   684.105     11.4092  11.6064     0.0   42.0611
12182  12141.0   684.505     11.4222  11.6194     0.0   42.1240
12192  12151.0   684.905     11.4360  11.6332     0.0   42.1680
12202  12161.0   685.305     11.4481  11.6453     0.0   42.1932
12212  12171.0   685.705     11.4624  11.6596     0.0   42.2768
12222  12181.0   686.105     11.4754  11.6726     0.0   42.3314
12232  12191.0   686.505     11.4886  11.6858     0.0   42.3692
12242  12201.0   686.905     11.5021  11.6993     0.0   42.4244
12252  12211.0   687.305     11.5157  11.7129     0.0   42.4727
12262  12221.0   687.705     11.5288  11.7261     0.0   42.5435
12272  12231.0   688.105     11.5422  11.7394     0.0   42.6033
12282  12241.0   688.505     11.5556  11.7529     0.0   42.6298
12292  12251.0   688.905     11.5689  11.7661     0.0   42.6929
12302  12261.0   689.305     11.5818  11.7790     0.0   42.7182
12312  12271.0   689.705     11.5960  11.7933     0.0   42.7659
12322  12281.0   690.105     11.6089  11.8061     0.0   42.8204
12332  12291.0   690.505     11.6222  11.8195     0.0   42.8612
12342  12301.0   690.905     11.6354  11.8326     0.0   42.9063
12352  12311.0   691.305     11.6491  11.8463     0.0   42.9485
12362  12321.0   691.705     11.6623  11.8596     0.0   42.9755
12372  12331.0   692.105     11.6750  11.8723     0.0   43.0195
12382  12341.0   692.505     11.6888  11.8861     0.0   43.0669
12392  12351.0   692.905     11.7021  11.8993     0.0   43.1027
12402  12361.0   693.305     11.7160  11.9132     0.0   43.1328
12412  12371.0   693.705     11.7287  11.9259     0.0   43.1516
12422  12381.0   694.105     11.7423  11.9395     0.0   43.1986
12432  12391.0   694.505     11.7555  11.9528     0.0   43.2514
12442  12401.0   694.905     11.7691  11.9663     0.0   43.3006
12452  12411.0   695.305     11.7827  11.9799     0.0   43.3183
12462  12421.0   695.705     11.7953  11.9926     0.0   43.3639
12472  12431.0   696.105     11.8089  12.0061     0.0   43.4116
12482  12441.0   696.505     11.8227  12.0199     0.0   43.4364
12492  12451.0   696.905     11.8357  12.0329     0.0   43.4807
12502  12461.0   697.305     11.8487  12.0459     0.0   43.5089
12512  12471.0   697.705     11.8624  12.0597     0.0   43.5510
12522  12481.0   698.105     11.8752  12.0725     0.0   43.5922
12532  12491.0   698.505     11.8891  12.0864     0.0   43.6237
12542  12501.0   698.905     11.9019  12.0991     0.0   43.6573
12552  12511.0   699.305     11.9157  12.1129     0.0   43.6771
12562  12521.0   699.705     11.9288  12.1260     0.0   43.7055
12572  12531.0   700.105     11.9423  12.1395     0.0   43.7524
12582  12541.0   700.505     11.9554  12.1526     0.0   43.7660
12592  12551.0   700.905     11.9692  12.1665     0.0   43.8083
12602  12561.0   701.305     11.9822  12.1794     0.0   43.8516
12612  12571.0   701.705     11.9956  12.1928     0.0   43.8840
12622  12581.0   702.105     12.0095  12.2067     0.0   43.9059
12632  12591.0   702.505     12.0220  12.2192     0.0   43.9292
12642  12601.0   702.905     12.0356  12.2329     0.0   43.9698
12652  12611.0   703.305     12.0485  12.2457     0.0   44.0027
12662  12621.0   703.705     12.0623  12.2596     0.0   44.0353
12672  12631.0   704.105     12.0759  12.2731     0.0   44.0583
12682  12641.0   704.505     12.0886  12.2858     0.0   44.0821
12692  12651.0   704.905     12.1024  12.2996     0.0   44.1244
12702  12661.0   705.305     12.1154  12.3126     0.0   44.1591
12712  12671.0   705.705     12.1291  12.3263     0.0   44.1778
12722  12681.0   706.105     12.1426  12.3398     0.0   44.2227
12732  12691.0   706.505     12.1562  12.3534     0.0   44.2420
12742  12701.0   706.905     12.1694  12.3666     0.0   44.2950
12752  12711.0   707.305     12.1823  12.3795     0.0   44.3200
12762  12721.0   707.705     12.1956  12.3929     0.0   44.3343
12772  12731.0   708.105     12.2093  12.4066     0.0   44.3760
12782  12741.0   708.505     12.2221  12.4193     0.0   44.4014
12792  12751.0   708.905     12.2359  12.4331     0.0   44.4206
12802  12761.0   709.305     12.2493  12.4465     0.0   44.4356
12812  12771.0   709.705     12.2626  12.4598     0.0   44.4782
12822  12781.0   710.105     12.2756  12.4728     0.0   44.5101
12832  12791.0   710.505     12.2894  12.4866     0.0   44.5208
12842  12801.0   710.905     12.3027  12.4999     0.0   44.5707
12852  12811.0   711.305     12.3161  12.5134     0.0   44.5751
12862  12821.0   711.705     12.3286  12.5258     0.0   44.6167
12872  12831.0   712.105     12.3422  12.5394     0.0   44.6444
12882  12841.0   712.505     12.3564  12.5536     0.0   44.6548
12892  12851.0   712.905     12.3687  12.5659     0.0   44.6876
12902  12861.0   713.305     12.3827  12.5800     0.0   44.6941
12912  12871.0   713.705     12.3949  12.5921     0.0   44.7022
12922  12881.0   714.105     12.4090  12.6062     0.0   44.7392
12932  12891.0   714.505     12.4228  12.6200     0.0   44.7754
12942  12901.0   714.905     12.4352  12.6324     0.0   44.7855
12952  12911.0   715.305     12.4490  12.6462     0.0   44.8253
12962  12921.0   715.705     12.4625  12.6597     0.0   44.8348
12972  12931.0   716.105     12.4761  12.6733     0.0   44.8607
12982  12941.0   716.505     12.4890  12.6862     0.0   44.8960
12992  12951.0   716.905     12.5021  12.6993     0.0   44.9286
13002  12961.0   717.305     12.5153  12.7126     0.0   44.9258
13012  12971.0   717.705     12.5286  12.7259     0.0   44.9579
13022  12981.0   718.105     12.5419  12.7392     0.0   44.9780
13038  12991.0   718.490     12.5362  12.7334     0.0   44.5401
13048  13001.0   718.890     12.5344  12.7316     0.0   44.3961
13058  13011.0   719.290     12.5342  12.7314     0.0   44.3477
13068  13021.0   719.690     12.5344  12.7316     0.0   44.2553
13078  13031.0   720.090     12.5347  12.7319     0.0   44.2210
13088  13041.0   720.490     12.5348  12.7320     0.0   44.1374
13098  13051.0   720.890     12.5344  12.7316     0.0   44.0979
13108  13061.0   721.290     12.5349  12.7321     0.0   44.0509
13118  13071.0   721.690     12.5356  12.7328     0.0   43.9932
13128  13081.0   722.090     12.5345  12.7317     0.0   43.9490
13138  13091.0   722.490     12.5344  12.7316     0.0   43.9117
13148  13101.0   722.890     12.5345  12.7318     0.0   43.8802
13158  13111.0   723.290     12.5339  12.7311     0.0   43.8426
13169  13121.0   723.690     12.5344  12.7316     0.0   43.7993
13179  13131.0   724.090     12.5350  12.7322     0.0   43.7739
13189  13141.0   724.490     12.5348  12.7321     0.0   43.7362
13199  13151.0   724.890     12.5354  12.7326     0.0   43.7098
13209  13161.0   725.290     12.5347  12.7320     0.0   43.6823
13219  13171.0   725.690     12.5344  12.7317     0.0   43.6557
13229  13181.0   726.090     12.5351  12.7323     0.0   43.6336
13239  13191.0   726.490     12.5343  12.7315     0.0   43.6058
13249  13201.0   726.890     12.5346  12.7319     0.0   43.5761
13259  13211.0   727.290     12.5345  12.7318     0.0   43.5522
13269  13221.0   727.690     12.5345  12.7317     0.0   43.5280
13279  13231.0   728.090     12.5342  12.7314     0.0   43.4999
13289  13241.0   728.490     12.5349  12.7321     0.0   43.4831
13299  13251.0   728.890     12.5338  12.7310     0.0   43.4700
13309  13261.0   729.290     12.5346  12.7318     0.0   43.4535
13319  13271.0   729.690     12.5348  12.7320     0.0   43.4267
13329  13281.0   730.090     12.5345  12.7318     0.0   43.3970
13339  13291.0   730.490     12.5342  12.7314     0.0   43.3772
13349  13301.0   730.890     12.5343  12.7316     0.0   43.3395
13359  13311.0   731.290     12.5356  12.7328     0.0   43.3469
13369  13321.0   731.690     12.5351  12.7324     0.0   43.3167
13379  13331.0   732.090     12.5344  12.7316     0.0   43.3087
13389  13341.0   732.490     12.5348  12.7321     0.0   43.2899
13399  13351.0   732.890     12.5347  12.7320     0.0   43.2716
13409  13361.0   733.290     12.5345  12.7317     0.0   43.2502
13419  13371.0   733.690     12.5342  12.7315     0.0   43.2297
13429  13381.0   734.090     12.5341  12.7314     0.0   43.2215
13439  13391.0   734.490     12.5343  12.7316     0.0   43.1948
13449  13401.0   734.890     12.5343  12.7315     0.0   43.1905
13459  13411.0   735.290     12.5341  12.7314     0.0   43.1782
13469  13421.0   735.690     12.5350  12.7322     0.0   43.1596
13479  13431.0   736.090     12.5346  12.7318     0.0   43.1623
13489  13441.0   736.490     12.5344  12.7316     0.0   43.1463
13499  13451.0   736.890     12.5344  12.7316     0.0   43.1139
13509  13461.0   737.290     12.5347  12.7319     0.0   43.1330
13519  13471.0   737.690     12.5351  12.7323     0.0   43.1315
13529  13481.0   738.090     12.5342  12.7314     0.0   43.1061
13539  13491.0   738.490     12.5345  12.7317     0.0   43.0953
13549  13501.0   738.890     12.5349  12.7321     0.0   43.0685
13559  13511.0   739.290     12.5345  12.7318     0.0   43.0591
13569  13521.0   739.690     12.5342  12.7314     0.0   43.0584
13579  13531.0   740.090     12.5354  12.7326     0.0   43.0394
13589  13541.0   740.490     12.5343  12.7315     0.0   43.0273
13599  13551.0   740.890     12.5348  12.7320     0.0   43.0053
13609  13561.0   741.290     12.5344  12.7316     0.0   42.9971
13619  13571.0   741.690     12.5346  12.7318     0.0   42.9746
13629  13581.0   742.090     12.5344  12.7316     0.0   42.9623
13639  13591.0   742.490     12.5347  12.7319     0.0   42.9457
13649  13601.0   742.890     12.5346  12.7319     0.0   42.9320
13659  13611.0   743.290     12.5344  12.7316     0.0   42.8970
13669  13621.0   743.690     12.5343  12.7315     0.0   42.8826
13679  13631.0   744.090     12.5355  12.7327     0.0   42.8638
13689  13641.0   744.490     12.5350  12.7322     0.0   42.8560
13699  13651.0   744.890     12.5349  12.7322     0.0   42.8341
13709  13661.0   745.290     12.5345  12.7317     0.0   42.8155
13719  13671.0   745.690     12.5344  12.7316     0.0   42.8050
13729  13681.0   746.090     12.5342  12.7315     0.0   42.8055
13739  13691.0   746.490     12.5348  12.7320     0.0   42.7944
13749  13701.0   746.890     12.5346  12.7319     0.0   42.7768
13759  13711.0   747.290     12.5341  12.7313     0.0   42.7666
13769  13721.0   747.690     12.5343  12.7315     0.0   42.7570
13779  13731.0   748.090     12.5343  12.7315     0.0   42.7441
13789  13741.0   748.490     12.5352  12.7325     0.0   42.7440
13799  13751.0   748.890     12.5347  12.7319     0.0   42.7288
13809  13761.0   749.290     12.5342  12.7314     0.0   42.7289
13819  13771.0   749.690     12.5350  12.7322     0.0   42.7059
13829  13781.0   750.090     12.5340  12.7312     0.0   42.6919
13839  13791.0   750.490     12.5341  12.7313     0.0   42.7025
13849  13801.0   750.890     12.5347  12.7319     0.0   42.7039
13859  13811.0   751.290     12.5346  12.7318     0.0   42.6748
13869  13821.0   751.690     12.5349  12.7321     0.0   42.6771
13879  13831.0   752.090     12.5346  12.7319     0.0   42.6922
13889  13841.0   752.490     12.5343  12.7315     0.0   42.6977
13899  13851.0   752.890     12.5347  12.7320     0.0   42.6795
13909  13861.0   753.290     12.5347  12.7319     0.0   42.6483
13919  13871.0   753.690     12.5341  12.7313     0.0   42.6349
13929  13881.0   754.090     12.5349  12.7321     0.0   42.6354
13939  13891.0   754.490     12.5345  12.7317     0.0   42.6015
13949  13901.0   754.890     12.5340  12.7313     0.0   42.6098
13959  13911.0   755.290     12.5348  12.7320     0.0   42.5970
13969  13921.0   755.690     12.5346  12.7319     0.0   42.6031
13979  13931.0   756.090     12.5354  12.7326     0.0   42.6215
13989  13941.0   756.490     12.5352  12.7324     0.0   42.6116
13999  13951.0   756.890     12.5345  12.7317     0.0   42.5961
14009  13961.0   757.290     12.5344  12.7316     0.0   42.5934
14019  13971.0   757.690     12.5346  12.7318     0.0   42.5826
14029  13981.0   758.090     12.5346  12.7318     0.0   42.5523
14039  13991.0   758.490     12.5350  12.7323     0.0   42.5489
14049  14001.0   758.890     12.5344  12.7316     0.0   42.5100
14059  14011.0   759.290     12.5346  12.7319     0.0   42.4783
14069  14021.0   759.690     12.5351  12.7323     0.0   42.4679
14079  14031.0   760.090     12.5347  12.7319     0.0   42.4831
14089  14041.0   760.490     12.5337  12.7309     0.0   42.4922
14099  14051.0   760.890     12.5350  12.7322     0.0   42.4928
14109  14061.0   761.290     12.5342  12.7314     0.0   42.4959
14119  14071.0   761.690     12.5354  12.7326     0.0   42.5075
14129  14081.0   762.090     12.5347  12.7319     0.0   42.4694
14139  14091.0   762.490     12.5345  12.7317     0.0   42.4557
14149  14101.0   762.890     12.5347  12.7320     0.0   42.4578
14159  14111.0   763.290     12.5342  12.7315     0.0   42.4437
14169  14121.0   763.690     12.5350  12.7322     0.0   42.4404
14179  14131.0   764.090     12.5346  12.7318     0.0   42.4154
14189  14141.0   764.490     12.5345  12.7317     0.0   42.4077
14199  14151.0   764.890     12.5342  12.7314     0.0   42.4008
14209  14161.0   765.290     12.5355  12.7327     0.0   42.4077
14219  14171.0   765.690     12.5352  12.7324     0.0   42.3925
14229  14181.0   766.090     12.5342  12.7314     0.0   42.3725
14239  14191.0   766.490     12.5352  12.7324     0.0   42.3559
14249  14201.0   766.890     12.5348  12.7320     0.0   42.3281
14259  14211.0   767.290     12.5345  12.7317     0.0   42.3309
14269  14221.0   767.690     12.5350  12.7322     0.0   42.3572
14279  14231.0   768.090     12.5351  12.7324     0.0   42.3476
14289  14241.0   768.490     12.5357  12.7329     0.0   42.3177
14299  14251.0   768.890     12.5343  12.7315     0.0   42.3140
14309  14261.0   769.290     12.5343  12.7315     0.0   42.3058
14319  14271.0   769.690     12.5348  12.7321     0.0   42.3010
14329  14281.0   770.090     12.5342  12.7314     0.0   42.3090
14339  14291.0   770.490     12.5347  12.7319     0.0   42.2911
14349  14301.0   770.890     12.5351  12.7324     0.0   42.3087
14359  14311.0   771.290     12.5346  12.7318     0.0   42.2959
14369  14321.0   771.690     12.5348  12.7321     0.0   42.2863
14379  14331.0   772.090     12.5348  12.7320     0.0   42.2440
14389  14341.0   772.490     12.5355  12.7327     0.0   42.2492
14399  14351.0   772.890     12.5336  12.7308     0.0   42.2378
14409  14361.0   773.290     12.5345  12.7317     0.0   42.2353
14419  14371.0   773.690     12.5350  12.7322     0.0   42.2334
14429  14381.0   774.090     12.5345  12.7318     0.0   42.2524
14439  14391.0   774.490     12.5345  12.7317     0.0   42.2506
14449  14401.0   774.890     12.5345  12.7317     0.0   42.2374
14459  14411.0   775.290     12.5347  12.7319     0.0   42.2185
14469  14421.0   775.690     12.5344  12.7316     0.0   42.2070
14479  14431.0   776.090     12.5348  12.7320     0.0   42.2063
14489  14441.0   776.490     12.5349  12.7321     0.0   42.2120
14499  14451.0   776.890     12.5348  12.7320     0.0   42.1924
14509  14461.0   777.290     12.5344  12.7316     0.0   42.1852
14519  14471.0   777.690     12.5352  12.7325     0.0   42.1908
14529  14481.0   778.090     12.5351  12.7324     0.0   42.1744
14539  14491.0   778.490     12.5347  12.7320     0.0   42.1758
14549  14501.0   778.890     12.5347  12.7319     0.0   42.1691
14559  14511.0   779.290     12.5342  12.7314     0.0   42.1794
14569  14521.0   779.690     12.5354  12.7326     0.0   42.1808
14579  14531.0   780.090     12.5348  12.7320     0.0   42.1674
14589  14541.0   780.490     12.5354  12.7326     0.0   42.1568
14599  14551.0   780.890     12.5350  12.7323     0.0   42.1398
14609  14561.0   781.290     12.5348  12.7320     0.0   42.1282
14619  14571.0   781.690     12.5344  12.7316     0.0   42.1187
14629  14581.0   782.090     12.5348  12.7320     0.0   42.1269
14639  14591.0   782.490     12.5350  12.7322     0.0   42.1016
14649  14601.0   782.890     12.5346  12.7319     0.0   42.1105
14659  14611.0   783.290     12.5351  12.7324     0.0   42.1018
14669  14621.0   783.690     12.5350  12.7322     0.0   42.0837
14679  14631.0   784.090     12.5344  12.7316     0.0   42.0882
14689  14641.0   784.490     12.5349  12.7321     0.0   42.0790
14699  14651.0   784.890     12.5347  12.7319     0.0   42.0788
14709  14661.0   785.290     12.5350  12.7322     0.0   42.0836
14719  14671.0   785.690     12.5341  12.7313     0.0   42.0732
14729  14681.0   786.090     12.5344  12.7317     0.0   42.0613
14739  14691.0   786.490     12.5345  12.7317     0.0   42.0603
14749  14701.0   786.890     12.5348  12.7320     0.0   42.0708
14759  14711.0   787.290     12.5344  12.7316     0.0   42.0603
14769  14721.0   787.690     12.5347  12.7319     0.0   42.0530
14779  14731.0   788.090     12.5345  12.7317     0.0   42.0450
14789  14741.0   788.490     12.5345  12.7317     0.0   42.0429
14799  14751.0   788.890     12.5342  12.7315     0.0   42.0242
14809  14761.0   789.290     12.5344  12.7316     0.0   42.0229
14819  14771.0   789.690     12.5351  12.7323     0.0   42.0050
14829  14781.0   790.090     12.5347  12.7319     0.0   42.0087
14839  14791.0   790.490     12.5350  12.7323     0.0   42.0076
14849  14801.0   790.890     12.5343  12.7316     0.0   41.9989
14859  14811.0   791.290     12.5342  12.7315     0.0   41.9853
14869  14821.0   791.690     12.5352  12.7324     0.0   41.9813
14879  14831.0   792.090     12.5344  12.7316     0.0   41.9746
14889  14841.0   792.490     12.5353  12.7325     0.0   41.9739
14899  14851.0   792.890     12.5345  12.7318     0.0   41.9472
14909  14861.0   793.290     12.5348  12.7320     0.0   41.9456
14919  14871.0   793.690     12.5351  12.7324     0.0   41.9444
14929  14881.0   794.090     12.5350  12.7322     0.0   41.9353
14939  14891.0   794.490     12.5353  12.7325     0.0   41.9337
14949  14901.0   794.890     12.5350  12.7322     0.0   41.9243
14959  14911.0   795.290     12.5353  12.7326     0.0   41.9270
14969  14921.0   795.690     12.5343  12.7315     0.0   41.8983
14979  14931.0   796.090     12.5345  12.7317     0.0   41.8833
14989  14941.0   796.490     12.5349  12.7321     0.0   41.8856
14999  14951.0   796.890     12.5348  12.7320     0.0   41.8869
15009  14961.0   797.290     12.5347  12.7320     0.0   41.8817
15019  14971.0   797.690     12.5349  12.7321     0.0   41.8693
15029  14981.0   798.090     12.5348  12.7321     0.0   41.8740
15039  14991.0   798.490     12.5349  12.7322     0.0   41.8722
15049  15001.0   798.890     12.5353  12.7325     0.0   41.8616
15059  15011.0   799.290     12.5347  12.7320     0.0   41.8235
15069  15021.0   799.690     12.5342  12.7314     0.0   41.8376
15079  15031.0   800.090     12.5350  12.7323     0.0   41.8355
15089  15041.0   800.490     12.5349  12.7322     0.0   41.8193
15099  15051.0   800.890     12.5339  12.7311     0.0   41.8574
15109  15061.0   801.290     12.5348  12.7320     0.0   41.8269
15119  15071.0   801.690     12.5344  12.7317     0.0   41.8088
15129  15081.0   802.090     12.5350  12.7322     0.0   41.8458
15139  15091.0   802.490     12.5351  12.7323     0.0   41.8238
15149  15101.0   802.890     12.5347  12.7319     0.0   41.7964
15159  15111.0   803.290     12.5351  12.7323     0.0   41.7963
15169  15121.0   803.690     12.5350  12.7322     0.0   41.8362
15179  15131.0   804.090     12.5355  12.7327     0.0   41.8758
15189  15141.0   804.490     12.5343  12.7315     0.0   41.8638
15199  15151.0   804.890     12.5351  12.7323     0.0   41.8193
15209  15161.0   805.290     12.5350  12.7322     0.0   41.8033
15219  15171.0   805.690     12.5351  12.7324     0.0   41.7960
15229  15181.0   806.090     12.5351  12.7323     0.0   41.7979
15239  15191.0   806.490     12.5341  12.7313     0.0   41.8197
15249  15201.0   806.890     12.5348  12.7320     0.0   41.8362
15259  15211.0   807.290     12.5345  12.7317     0.0   41.8230
15269  15221.0   807.690     12.5353  12.7325     0.0   41.8186
15279  15231.0   808.090     12.5354  12.7326     0.0   41.7964
15289  15241.0   808.490     12.5342  12.7314     0.0   41.7912
15299  15251.0   808.890     12.5341  12.7314     0.0   41.7837
15309  15261.0   809.290     12.5346  12.7318     0.0   41.7882
15319  15271.0   809.690     12.5347  12.7320     0.0   41.7800
15329  15281.0   810.090     12.5344  12.7316     0.0   41.7820
15339  15291.0   810.490     12.5355  12.7327     0.0   41.7745
15349  15301.0   810.890     12.5344  12.7316     0.0   41.7689
15359  15311.0   811.290     12.5350  12.7322     0.0   41.7687
15369  15321.0   811.690     12.5353  12.7325     0.0   41.7527
15379  15331.0   812.090     12.5348  12.7320     0.0   41.7382
15389  15341.0   812.490     12.5347  12.7320     0.0   41.7509
15399  15351.0   812.890     12.5351  12.7323     0.0   41.7535
15409  15361.0   813.290     12.5353  12.7325     0.0   41.7464
15419  15371.0   813.690     12.5352  12.7324     0.0   41.7426
15429  15381.0   814.090     12.5347  12.7319     0.0   41.7237
15439  15391.0   814.490     12.5348  12.7320     0.0   41.7248
15449  15401.0   814.890     12.5349  12.7322     0.0   41.7218
15459  15411.0   815.290     12.5349  12.7322     0.0   41.7188
15469  15421.0   815.690     12.5350  12.7322     0.0   41.7069
15479  15431.0   816.090     12.5347  12.7319     0.0   41.7011
15489  15441.0   816.490     12.5345  12.7317     0.0   41.7037
15499  15451.0   816.890     12.5352  12.7325     0.0   41.7021
15509  15461.0   817.290     12.5340  12.7312     0.0   41.6870
15519  15471.0   817.690     12.5349  12.7322     0.0   41.6896
15529  15481.0   818.090     12.5348  12.7320     0.0   41.6630
15539  15491.0   818.490     12.5348  12.7320     0.0   41.6683
15549  15501.0   818.890     12.5352  12.7324     0.0   41.6707
15559  15511.0   819.290     12.5343  12.7315     0.0   41.6695
15569  15521.0   819.690     12.5360  12.7332     0.0   41.6485
15579  15531.0   820.090     12.5350  12.7322     0.0   41.6562
15589  15541.0   820.490     12.5351  12.7323     0.0   41.6269
15599  15551.0   820.890     12.5354  12.7326     0.0   41.6233
15609  15561.0   821.290     12.5349  12.7321     0.0   41.6145
15619  15571.0   821.690     12.5350  12.7322     0.0   41.6086
15629  15581.0   822.090     12.5349  12.7322     0.0   41.6035
15639  15591.0   822.490     12.5352  12.7324     0.0   41.5968
15649  15601.0   822.890     12.5343  12.7315     0.0   41.5965
15659  15611.0   823.290     12.5345  12.7318     0.0   41.5730
15669  15621.0   823.690     12.5354  12.7326     0.0   41.5768
15679  15631.0   824.090     12.5345  12.7317     0.0   41.5863
15689  15641.0   824.490     12.5345  12.7318     0.0   41.5824
15699  15651.0   824.890     12.5350  12.7322     0.0   41.5848
15709  15661.0   825.290     12.5345  12.7317     0.0   41.6027
15719  15671.0   825.690     12.5346  12.7318     0.0   41.5950
15729  15681.0   826.090     12.5349  12.7321     0.0   41.5931
15739  15691.0   826.490     12.5353  12.7325     0.0   41.5987
15749  15701.0   826.890     12.5351  12.7323     0.0   41.5839
15759  15711.0   827.290     12.5344  12.7317     0.0   41.5690
15769  15721.0   827.690     12.5348  12.7320     0.0   41.5780
15779  15731.0   828.090     12.5347  12.7320     0.0   41.5920
15789  15741.0   828.490     12.5352  12.7324     0.0   41.5928
15799  15751.0   828.890     12.5348  12.7320     0.0   41.5797
15809  15761.0   829.290     12.5346  12.7318     0.0   41.5620
15819  15771.0   829.690     12.5347  12.7320     0.0   41.5563
15829  15781.0   830.090     12.5348  12.7320     0.0   41.5636
15839  15791.0   830.490     12.5350  12.7322     0.0   41.5334
15849  15801.0   830.890     12.5343  12.7316     0.0   41.5317
15859  15811.0   831.290     12.5350  12.7323     0.0   41.5376
15869  15821.0   831.690     12.5351  12.7323     0.0   41.5380
15879  15831.0   832.090     12.5351  12.7323     0.0   41.5203
15889  15841.0   832.490     12.5349  12.7321     0.0   41.5154
15899  15851.0   832.890     12.5351  12.7323     0.0   41.5096
15909  15861.0   833.290     12.5348  12.7320     0.0   41.5175
15919  15871.0   833.690     12.5353  12.7325     0.0   41.5136
15929  15881.0   834.090     12.5345  12.7317     0.0   41.5010
15939  15891.0   834.490     12.5357  12.7330     0.0   41.5034
15949  15901.0   834.890     12.5351  12.7324     0.0   41.5202
15959  15911.0   835.290     12.5344  12.7317     0.0   41.5002
15969  15921.0   835.690     12.5354  12.7326     0.0   41.4951
15979  15931.0   836.090     12.5344  12.7316     0.0   41.4794
15989  15941.0   836.490     12.5348  12.7320     0.0   41.4833
15999  15951.0   836.890     12.5350  12.7323     0.0   41.4765
16009  15961.0   837.290     12.5351  12.7323     0.0   41.4698
16019  15971.0   837.690     12.5352  12.7325     0.0   41.4532
16029  15981.0   838.090     12.5349  12.7321     0.0   41.4403
16039  15991.0   838.490     12.5352  12.7324     0.0   41.4278
16049  16001.0   838.890     12.5347  12.7319     0.0   41.4139
16059  16011.0   839.290     12.5350  12.7322     0.0   41.4027
16069  16021.0   839.690     12.5358  12.7331     0.0   41.3872
16079  16031.0   840.090     12.5353  12.7326     0.0   41.3899
16089  16041.0   840.490     12.5347  12.7319     0.0   41.3728
16099  16051.0   840.890     12.5354  12.7326     0.0   41.3763
16109  16061.0   841.290     12.5347  12.7319     0.0   41.3769
16119  16071.0   841.690     12.5347  12.7319     0.0   41.3780
16129  16081.0   842.090     12.5351  12.7323     0.0   41.3744
16139  16091.0   842.490     12.5347  12.7319     0.0   41.3891
16149  16101.0   842.890     12.5350  12.7323     0.0   41.3793
16159  16111.0   843.290     12.5344  12.7316     0.0   41.3832
16169  16121.0   843.690     12.5348  12.7321     0.0   41.3885
16179  16131.0   844.090     12.5350  12.7322     0.0   41.3737
16189  16141.0   844.490     12.5350  12.7322     0.0   41.3776
16199  16151.0   844.890     12.5347  12.7319     0.0   41.3671
16209  16161.0   845.290     12.5342  12.7314     0.0   41.3698
16219  16171.0   845.690     12.5357  12.7330     0.0   41.3744
16229  16181.0   846.090     12.5342  12.7314     0.0   41.3585
16239  16191.0   846.490     12.5348  12.7321     0.0   41.3721
16249  16201.0   846.890     12.5355  12.7328     0.0   41.3934
16259  16211.0   847.290     12.5348  12.7320     0.0   41.3774
16269  16221.0   847.690     12.5347  12.7319     0.0   41.3606
16279  16231.0   848.090     12.5344  12.7316     0.0   41.3613
16289  16241.0   848.490     12.5349  12.7322     0.0   41.3628
16299  16251.0   848.890     12.5353  12.7325     0.0   41.3535
16309  16261.0   849.290     12.5361  12.7333     0.0   41.3512
16319  16271.0   849.690     12.5355  12.7327     0.0   41.3352
16329  16281.0   850.090     12.5345  12.7317     0.0   41.3392
16339  16291.0   850.490     12.5353  12.7325     0.0   41.3329
16349  16301.0   850.890     12.5347  12.7320     0.0   41.3188
16359  16311.0   851.290     12.5349  12.7321     0.0   41.3165
16369  16321.0   851.690     12.5355  12.7328     0.0   41.3156
16379  16331.0   852.090     12.5352  12.7325     0.0   41.3136
16389  16341.0   852.490     12.5349  12.7321     0.0   41.2984
16399  16351.0   852.890     12.5353  12.7325     0.0   41.3117
16409  16361.0   853.290     12.5353  12.7325     0.0   41.2903
16419  16371.0   853.690     12.5352  12.7325     0.0   41.2891
16429  16381.0   854.090     12.5348  12.7320     0.0   41.2898
16439  16391.0   854.490     12.5349  12.7322     0.0   41.3012
16449  16401.0   854.890     12.5348  12.7321     0.0   41.2910
16459  16411.0   855.290     12.5353  12.7325     0.0   41.2987
16469  16421.0   855.690     12.5354  12.7326     0.0   41.2793
16479  16431.0   856.090     12.5351  12.7323     0.0   41.2751
16489  16441.0   856.490     12.5351  12.7323     0.0   41.2722
16499  16451.0   856.890     12.5347  12.7319     0.0   41.2738
16509  16461.0   857.290     12.5349  12.7321     0.0   41.2773
16519  16471.0   857.690     12.5344  12.7316     0.0   41.2667
16529  16481.0   858.090     12.5356  12.7328     0.0   41.2731
16539  16491.0   858.490     12.5350  12.7322     0.0   41.2544
16549  16501.0   858.890     12.5358  12.7330     0.0   41.2860
16559  16511.0   859.290     12.5351  12.7323     0.0   41.2919
16569  16521.0   859.690     12.5353  12.7325     0.0   41.2743
16579  16531.0   860.090     12.5349  12.7321     0.0   41.2696
16589  16541.0   860.490     12.5347  12.7319     0.0   41.2654
16599  16551.0   860.890     12.5351  12.7324     0.0   41.2717
16609  16561.0   861.290     12.5354  12.7326     0.0   41.2594
16619  16571.0   861.690     12.5352  12.7324     0.0   41.2560
16629  16581.0   862.090     12.5354  12.7326     0.0   41.2485
16639  16591.0   862.490     12.5356  12.7328     0.0   41.2439
16649  16601.0   862.890     12.5358  12.7330     0.0   41.2539
16659  16611.0   863.290     12.5358  12.7330     0.0   41.2560
16669  16621.0   863.690     12.5353  12.7325     0.0   41.2475
16679  16631.0   864.090     12.5352  12.7325     0.0   41.2363
16689  16641.0   864.490     12.5353  12.7325     0.0   41.2414
16699  16651.0   864.890     12.5347  12.7319     0.0   41.2378
16709  16661.0   865.290     12.5356  12.7328     0.0   41.2396
16719  16671.0   865.690     12.5355  12.7327     0.0   41.2231
16729  16681.0   866.090     12.5353  12.7325     0.0   41.2026
16739  16691.0   866.490     12.5353  12.7326     0.0   41.1873
16749  16701.0   866.890     12.5361  12.7333     0.0   41.1740
16759  16711.0   867.290     12.5357  12.7330     0.0   41.1703
16769  16721.0   867.690     12.5355  12.7327     0.0   41.1687
16779  16731.0   868.090     12.5347  12.7319     0.0   41.1893
16789  16741.0   868.490     12.5348  12.7321     0.0   41.2099
16799  16751.0   868.890     12.5347  12.7319     0.0   41.1878
16809  16761.0   869.290     12.5350  12.7322     0.0   41.1525
16819  16771.0   869.690     12.5345  12.7318     0.0   41.1620
16829  16781.0   870.090     12.5353  12.7325     0.0   41.1565
16839  16791.0   870.490     12.5345  12.7317     0.0   41.1506
16849  16801.0   870.890     12.5347  12.7320     0.0   41.1347
16859  16811.0   871.290     12.5351  12.7323     0.0   41.1336
16869  16821.0   871.690     12.5349  12.7321     0.0   41.1191
16879  16831.0   872.090     12.5348  12.7321     0.0   41.1114
16889  16841.0   872.490     12.5349  12.7321     0.0   41.1108
16899  16851.0   872.890     12.5355  12.7327     0.0   41.0984
16909  16861.0   873.290     12.5348  12.7320     0.0   41.1084
16919  16871.0   873.690     12.5353  12.7325     0.0   41.1169
16929  16881.0   874.090     12.5352  12.7325     0.0   41.1065
16939  16891.0   874.490     12.5349  12.7321     0.0   41.1112
16955  16901.0   874.935     12.5439  12.7411     0.0   41.3468
16965  16911.0   875.335     12.5575  12.7547     0.0   41.6708
16975  16921.0   875.735     12.5710  12.7682     0.0   41.9642
16985  16931.0   876.135     12.5840  12.7812     0.0   42.2594
16995  16941.0   876.535     12.5975  12.7948     0.0   42.5326
17005  16951.0   876.935     12.6109  12.8081     0.0   42.8007
17015  16961.0   877.335     12.6238  12.8211     0.0   43.0526
17025  16971.0   877.735     12.6374  12.8346     0.0   43.2846
17035  16981.0   878.135     12.6511  12.8484     0.0   43.5126
17045  16991.0   878.535     12.6636  12.8609     0.0   43.7317
17055  17001.0   878.935     12.6770  12.8743     0.0   43.9315
17065  17011.0   879.335     12.6906  12.8878     0.0   44.1220
17075  17021.0   879.735     12.7032  12.9004     0.0   44.3028
17085  17031.0   880.135     12.7171  12.9143     0.0   44.4229
17095  17041.0   880.535     12.7298  12.9270     0.0   44.5610
17105  17051.0   880.935     12.7437  12.9409     0.0   44.6764
17115  17061.0   881.335     12.7565  12.9538     0.0   44.7691
17125  17071.0   881.735     12.7702  12.9675     0.0   44.8423
17135  17081.0   882.135     12.7833  12.9806     0.0   44.9146
17145  17091.0   882.535     12.7969  12.9942     0.0   44.9799
17155  17101.0   882.935     12.8105  13.0078     0.0   45.0518
17165  17111.0   883.335     12.8243  13.0215     0.0   45.1016
17175  17121.0   883.735     12.8371  13.0343     0.0   45.1367
17185  17131.0   884.135     12.8497  13.0469     0.0   45.1903
17195  17141.0   884.535     12.8635  13.0608     0.0   45.2279
17205  17151.0   884.935     12.8767  13.0739     0.0   45.2725
17215  17161.0   885.335     12.8894  13.0866     0.0   45.2889
17225  17171.0   885.735     12.9045  13.1017     0.0   45.3415
17235  17181.0   886.135     12.9171  13.1144     0.0   45.3502
17245  17191.0   886.535     12.9302  13.1274     0.0   45.3896
17255  17201.0   886.935     12.9435  13.1408     0.0   45.4080
17265  17211.0   887.335     12.9566  13.1539     0.0   45.4642
17275  17221.0   887.735     12.9712  13.1684     0.0   45.4531
17285  17231.0   888.135     12.9838  13.1810     0.0   45.4890
17295  17241.0   888.535     12.9972  13.1944     0.0   45.5290
17305  17251.0   888.935     13.0108  13.2080     0.0   45.5512
17315  17261.0   889.335     13.0239  13.2211     0.0   45.5879
17325  17271.0   889.735     13.0373  13.2346     0.0   45.6050
17335  17281.0   890.135     13.0505  13.2477     0.0   45.6184
17345  17291.0   890.535     13.0639  13.2612     0.0   45.6385
17355  17301.0   890.935     13.0768  13.2740     0.0   45.6703
17365  17311.0   891.335     13.0902  13.2875     0.0   45.6776
17375  17321.0   891.735     13.1042  13.3014     0.0   45.7048
17385  17331.0   892.135     13.1172  13.3144     0.0   45.7198
17395  17341.0   892.535     13.1305  13.3277     0.0   45.7590
17405  17351.0   892.935     13.1442  13.3414     0.0   45.7682
17415  17361.0   893.335     13.1576  13.3548     0.0   45.7998
17425  17371.0   893.735     13.1708  13.3680     0.0   45.8235
17435  17381.0   894.135     13.1839  13.3812     0.0   45.8181
17445  17391.0   894.535     13.1968  13.3940     0.0   45.8590
17455  17401.0   894.935     13.2104  13.4076     0.0   45.8775
17465  17411.0   895.335     13.2245  13.4217     0.0   45.9154
17475  17421.0   895.735     13.2372  13.4344     0.0   45.9048
17485  17431.0   896.135     13.2518  13.4490     0.0   45.9273
17495  17441.0   896.535     13.2638  13.4610     0.0   45.9600
17505  17451.0   896.935     13.2770  13.4742     0.0   45.9666
17515  17461.0   897.335     13.2904  13.4876     0.0   45.9828
17525  17471.0   897.735     13.3035  13.5007     0.0   46.0163
17535  17481.0   898.135     13.3172  13.5144     0.0   46.0315
17545  17491.0   898.535     13.3306  13.5278     0.0   46.0514
17555  17501.0   898.935     13.3442  13.5415     0.0   46.0705
17565  17511.0   899.335     13.3577  13.5549     0.0   46.0915
17575  17521.0   899.735     13.3708  13.5680     0.0   46.0927
17585  17531.0   900.135     13.3837  13.5809     0.0   46.1185
17595  17541.0   900.535     13.3966  13.5938     0.0   46.1559
17605  17551.0   900.935     13.4098  13.6070     0.0   46.1515
17615  17561.0   901.335     13.4237  13.6210     0.0   46.1700
17625  17571.0   901.735     13.4372  13.6344     0.0   46.1730
17635  17581.0   902.135     13.4500  13.6473     0.0   46.1979
17645  17591.0   902.535     13.4635  13.6607     0.0   46.2285
17655  17601.0   902.935     13.4770  13.6742     0.0   46.2276
17665  17611.0   903.335     13.4911  13.6883     0.0   46.2586
17675  17621.0   903.735     13.5042  13.7014     0.0   46.2714
17685  17631.0   904.135     13.5173  13.7145     0.0   46.2835
17695  17641.0   904.535     13.5305  13.7278     0.0   46.3100
17705  17651.0   904.935     13.5448  13.7420     0.0   46.3234
17715  17661.0   905.335     13.5575  13.7547     0.0   46.3247
17725  17671.0   905.735     13.5700  13.7672     0.0   46.3392
17735  17681.0   906.135     13.5841  13.7813     0.0   46.3690
17745  17691.0   906.535     13.5971  13.7943     0.0   46.3655
17755  17701.0   906.935     13.6105  13.8077     0.0   46.3781
17765  17711.0   907.335     13.6235  13.8208     0.0   46.4016
17775  17721.0   907.735     13.6366  13.8339     0.0   46.4066
17785  17731.0   908.135     13.6504  13.8477     0.0   46.4210
17795  17741.0   908.535     13.6643  13.8615     0.0   46.4493
17805  17751.0   908.935     13.6770  13.8742     0.0   46.4536
17815  17761.0   909.335     13.6909  13.8881     0.0   46.4700
17825  17771.0   909.735     13.7045  13.9017     0.0   46.4842
17835  17781.0   910.135     13.7157  13.9129     0.0   46.5103
17845  17791.0   910.535     13.7300  13.9273     0.0   46.4993
17855  17801.0   910.935     13.7438  13.9410     0.0   46.5344
17865  17811.0   911.335     13.7574  13.9546     0.0   46.5451
17875  17821.0   911.735     13.7702  13.9674     0.0   46.5423
17885  17831.0   912.135     13.7840  13.9812     0.0   46.5778
17895  17841.0   912.535     13.7967  13.9940     0.0   46.5764
17905  17851.0   912.935     13.8103  14.0076     0.0   46.5911
17915  17861.0   913.335     13.8244  14.0216     0.0   46.6084
17925  17871.0   913.735     13.8372  14.0345     0.0   46.6301
17935  17881.0   914.135     13.8505  14.0477     0.0   46.6403
17945  17891.0   914.535     13.8645  14.0617     0.0   46.6537
17955  17901.0   914.935     13.8769  14.0742     0.0   46.6595
17965  17911.0   915.335     13.8907  14.0879     0.0   46.6791
17975  17921.0   915.735     13.9037  14.1009     0.0   46.6857
17985  17931.0   916.135     13.9168  14.1140     0.0   46.7300
17995  17941.0   916.535     13.9299  14.1272     0.0   46.7336
18005  17951.0   916.935     13.9438  14.1411     0.0   46.7362
18015  17961.0   917.335     13.9566  14.1538     0.0   46.7516
18025  17971.0   917.735     13.9707  14.1679     0.0   46.7636
18035  17981.0   918.135     13.9844  14.1816     0.0   46.7730
18045  17991.0   918.535     13.9974  14.1946     0.0   46.7863
18055  18001.0   918.935     14.0103  14.2075     0.0   46.8184
18065  18011.0   919.335     14.0238  14.2211     0.0   46.8263
18075  18021.0   919.735     14.0367  14.2340     0.0   46.8487
18085  18031.0   920.135     14.0501  14.2474     0.0   46.8644
18095  18041.0   920.535     14.0637  14.2609     0.0   46.8655
18105  18051.0   920.935     14.0779  14.2751     0.0   46.8894
18115  18061.0   921.335     14.0907  14.2880     0.0   46.9095
18125  18071.0   921.735     14.1036  14.3009     0.0   46.9188
18135  18081.0   922.135     14.1166  14.3138     0.0   46.9317
18145  18091.0   922.535     14.1301  14.3274     0.0   46.9532
18155  18101.0   922.935     14.1435  14.3407     0.0   46.9595
18165  18111.0   923.335     14.1575  14.3547     0.0   46.9822
18175  18121.0   923.735     14.1703  14.3675     0.0   46.9915
18185  18131.0   924.135     14.1839  14.3811     0.0   47.0033
18195  18141.0   924.535     14.1978  14.3950     0.0   47.0330
18205  18151.0   924.935     14.2107  14.4079     0.0   47.0255
18215  18161.0   925.335     14.2242  14.4214     0.0   47.0623
18225  18171.0   925.735     14.2371  14.4344     0.0   47.0715
18235  18181.0   926.135     14.2502  14.4474     0.0   47.0810
18245  18191.0   926.535     14.2635  14.4608     0.0   47.0723
18255  18201.0   926.935     14.2773  14.4745     0.0   47.0830
18265  18211.0   927.335     14.2904  14.4876     0.0   47.1079
18275  18221.0   927.735     14.3037  14.5009     0.0   47.1221
18285  18231.0   928.135     14.3171  14.5143     0.0   47.1474
18295  18241.0   928.535     14.3300  14.5272     0.0   47.1655
18305  18251.0   928.935     14.3433  14.5405     0.0   47.1752
18315  18261.0   929.335     14.3570  14.5542     0.0   47.1950
18325  18271.0   929.735     14.3707  14.5679     0.0   47.2034
18335  18281.0   930.135     14.3843  14.5815     0.0   47.2109
18345  18291.0   930.535     14.3978  14.5950     0.0   47.2216
18355  18301.0   930.935     14.4107  14.6079     0.0   47.2409
18365  18311.0   931.335     14.4233  14.6206     0.0   47.2617
18375  18321.0   931.735     14.4372  14.6345     0.0   47.2714
18385  18331.0   932.135     14.4510  14.6482     0.0   47.2897
18395  18341.0   932.535     14.4639  14.6611     0.0   47.3143
18405  18351.0   932.935     14.4769  14.6741     0.0   47.3172
18415  18361.0   933.335     14.4915  14.6887     0.0   47.3343
18425  18371.0   933.735     14.5036  14.7008     0.0   47.3293
18435  18381.0   934.135     14.5173  14.7145     0.0   47.3645
18445  18391.0   934.535     14.5303  14.7275     0.0   47.3804
18455  18401.0   934.935     14.5443  14.7416     0.0   47.3839
18465  18411.0   935.335     14.5570  14.7542     0.0   47.3900
18475  18421.0   935.735     14.5707  14.7679     0.0   47.4204
18485  18431.0   936.135     14.5834  14.7807     0.0   47.4258
18495  18441.0   936.535     14.5977  14.7949     0.0   47.4672
18505  18451.0   936.935     14.6112  14.8085     0.0   47.4629
18515  18461.0   937.335     14.6242  14.8214     0.0   47.4652
18525  18471.0   937.735     14.6369  14.8342     0.0   47.4762
18535  18481.0   938.135     14.6507  14.8479     0.0   47.4850
18545  18491.0   938.535     14.6635  14.8607     0.0   47.5165
18555  18501.0   938.935     14.6772  14.8744     0.0   47.5459
18565  18511.0   939.335     14.6906  14.8878     0.0   47.5613
18575  18521.0   939.735     14.7033  14.9005     0.0   47.5523
18585  18531.0   940.135     14.7173  14.9145     0.0   47.5874
18595  18541.0   940.535     14.7301  14.9273     0.0   47.5973
18605  18551.0   940.935     14.7439  14.9411     0.0   47.6069
18615  18561.0   941.335     14.7587  14.9560     0.0   47.6230
18625  18571.0   941.735     14.7705  14.9678     0.0   47.6394
18635  18581.0   942.135     14.7842  14.9814     0.0   47.6418
18645  18591.0   942.535     14.7971  14.9943     0.0   47.6529
18655  18601.0   942.935     14.8108  15.0080     0.0   47.6826
18665  18611.0   943.335     14.8236  15.0208     0.0   47.6833
18675  18621.0   943.735     14.8377  15.0349     0.0   47.6945
18685  18631.0   944.135     14.8503  15.0476     0.0   47.7157
18695  18641.0   944.535     14.8640  15.0612     0.0   47.7220
18705  18651.0   944.935     14.8773  15.0745     0.0   47.7567
18715  18661.0   945.335     14.8909  15.0881     0.0   47.7599
18725  18671.0   945.735     14.9040  15.1012     0.0   47.7820
18735  18681.0   946.135     14.9171  15.1144     0.0   47.7796
18745  18691.0   946.535     14.9300  15.1273     0.0   47.8090
18755  18701.0   946.935     14.9441  15.1413     0.0   47.8018
18765  18711.0   947.335     14.9570  15.1542     0.0   47.8229
18775  18721.0   947.735     14.9710  15.1682     0.0   47.8501
18785  18731.0   948.135     14.9837  15.1809     0.0   47.8572
18795  18741.0   948.535     14.9977  15.1949     0.0   47.8529
18805  18751.0   948.935     15.0107  15.2079     0.0   47.8779
18815  18761.0   949.335     15.0244  15.2216     0.0   47.9211
18825  18771.0   949.735     15.0367  15.2339     0.0   47.8964
18835  18781.0   950.135     15.0502  15.2474     0.0   47.9250
18845  18791.0   950.535     15.0635  15.2607     0.0   47.9527
18855  18801.0   950.935     15.0771  15.2744     0.0   47.9527
18865  18811.0   951.335     15.0901  15.2873     0.0   47.9771
18875  18821.0   951.735     15.1034  15.3007     0.0   47.9815
18885  18831.0   952.135     15.1164  15.3136     0.0   47.9916
18895  18841.0   952.535     15.1304  15.3277     0.0   48.0109
18905  18851.0   952.935     15.1439  15.3411     0.0   48.0111
18915  18861.0   953.335     15.1571  15.3543     0.0   48.0178
18925  18871.0   953.735     15.1702  15.3675     0.0   48.0295
18935  18881.0   954.135     15.1840  15.3812     0.0   48.0769
18945  18891.0   954.535     15.1972  15.3944     0.0   48.0787
18955  18901.0   954.935     15.2107  15.4079     0.0   48.1062
18965  18911.0   955.335     15.2234  15.4206     0.0   48.1016
18975  18921.0   955.735     15.2363  15.4336     0.0   48.1074
18985  18931.0   956.135     15.2504  15.4476     0.0   48.1273
18995  18941.0   956.535     15.2640  15.4612     0.0   48.1618
19005  18951.0   956.935     15.2771  15.4743     0.0   48.1490
19015  18961.0   957.335     15.2903  15.4876     0.0   48.1473
19025  18971.0   957.735     15.3047  15.5020     0.0   48.1505
19035  18981.0   958.135     15.3177  15.5149     0.0   48.1840
19045  18991.0   958.535     15.3297  15.5269     0.0   48.1834
19055  19001.0   958.935     15.3437  15.5409     0.0   48.2327
19065  19011.0   959.335     15.3578  15.5550     0.0   48.2477
19075  19021.0   959.735     15.3701  15.5673     0.0   48.2557
19085  19031.0   960.135     15.3840  15.5813     0.0   48.2784
19095  19041.0   960.535     15.3975  15.5948     0.0   48.2957
19105  19051.0   960.935     15.4101  15.6073     0.0   48.2978
19115  19061.0   961.335     15.4244  15.6216     0.0   48.3172
19125  19071.0   961.735     15.4383  15.6355     0.0   48.3099
19135  19081.0   962.135     15.4498  15.6470     0.0   48.3291
19145  19091.0   962.535     15.4639  15.6612     0.0   48.3506
19155  19101.0   962.935     15.4770  15.6743     0.0   48.3819
19165  19111.0   963.335     15.4914  15.6886     0.0   48.3878
19175  19121.0   963.735     15.5037  15.7009     0.0   48.3895
19185  19131.0   964.135     15.5173  15.7145     0.0   48.3672
19195  19141.0   964.535     15.5309  15.7282     0.0   48.4301
19205  19151.0   964.935     15.5437  15.7410     0.0   48.4391
19215  19161.0   965.335     15.5565  15.7537     0.0   48.4367
19225  19171.0   965.735     15.5713  15.7685     0.0   48.4669
19235  19181.0   966.135     15.5836  15.7808     0.0   48.4818
19245  19191.0   966.535     15.5967  15.7940     0.0   48.4941
19255  19201.0   966.935     15.6099  15.8071     0.0   48.4895
19265  19211.0   967.335     15.6223  15.8195     0.0   48.4884
19275  19221.0   967.735     15.6371  15.8344     0.0   48.5442
19285  19231.0   968.135     15.6500  15.8472     0.0   48.5560
19295  19241.0   968.535     15.6637  15.8609     0.0   48.5464
19305  19251.0   968.935     15.6765  15.8737     0.0   48.5587
19315  19261.0   969.335     15.6904  15.8876     0.0   48.5873
19325  19271.0   969.735     15.7038  15.9010     0.0   48.6040
19335  19281.0   970.135     15.7175  15.9148     0.0   48.6293
19345  19291.0   970.535     15.7307  15.9280     0.0   48.6437
19355  19301.0   970.935     15.7439  15.9412     0.0   48.6489
19365  19311.0   971.335     15.7567  15.9539     0.0   48.6402
19375  19321.0   971.735     15.7707  15.9679     0.0   48.6750
19385  19331.0   972.135     15.7839  15.9811     0.0   48.6930
19395  19341.0   972.535     15.7975  15.9947     0.0   48.6938
19405  19351.0   972.935     15.8106  16.0078     0.0   48.7239
19415  19361.0   973.335     15.8243  16.0216     0.0   48.7235
19425  19371.0   973.735     15.8374  16.0346     0.0   48.7579
19435  19381.0   974.135     15.8504  16.0476     0.0   48.7614
19445  19391.0   974.535     15.8633  16.0605     0.0   48.7521
19455  19401.0   974.935     15.8771  16.0744     0.0   48.7765
19465  19411.0   975.335     15.8907  16.0879     0.0   48.7971
19475  19421.0   975.735     15.9029  16.1002     0.0   48.8021
19485  19431.0   976.135     15.9179  16.1151     0.0   48.8261
19495  19441.0   976.535     15.9302  16.1274     0.0   48.8385
19505  19451.0   976.935     15.9432  16.1405     0.0   48.8459
19515  19461.0   977.335     15.9566  16.1538     0.0   48.8452
19525  19471.0   977.735     15.9701  16.1673     0.0   48.8670
19535  19481.0   978.135     15.9841  16.1813     0.0   48.8792
19545  19491.0   978.535     15.9972  16.1944     0.0   48.9150
19555  19501.0   978.935     16.0105  16.2077     0.0   48.9106
19565  19511.0   979.335     16.0229  16.2201     0.0   48.9270
19575  19521.0   979.735     16.0373  16.2345     0.0   48.9525
19585  19531.0   980.135     16.0502  16.2474     0.0   48.9590
19595  19541.0   980.535     16.0636  16.2609     0.0   48.9773
19605  19551.0   980.935     16.0778  16.2750     0.0   49.0083
19615  19561.0   981.335     16.0901  16.2873     0.0   48.9971
19625  19571.0   981.735     16.1030  16.3002     0.0   49.0114
19635  19581.0   982.135     16.1172  16.3144     0.0   49.0194
19645  19591.0   982.535     16.1302  16.3274     0.0   49.0488
19655  19601.0   982.935     16.1435  16.3408     0.0   49.0704
19665  19611.0   983.335     16.1563  16.3535     0.0   49.0587
19675  19621.0   983.735     16.1703  16.3675     0.0   49.0896
19685  19631.0   984.135     16.1839  16.3812     0.0   49.1143
19695  19641.0   984.535     16.1981  16.3953     0.0   49.1175
19705  19651.0   984.935     16.2107  16.4079     0.0   49.1340
19715  19661.0   985.335     16.2232  16.4205     0.0   49.1469
19725  19671.0   985.735     16.2383  16.4355     0.0   49.1657
19735  19681.0   986.135     16.2512  16.4484     0.0   49.1809
19745  19691.0   986.535     16.2635  16.4607     0.0   49.1891
19755  19701.0   986.935     16.2770  16.4742     0.0   49.1915
19765  19711.0   987.335     16.2908  16.4880     0.0   49.2348
19775  19721.0   987.735     16.3039  16.5012     0.0   49.2004
19785  19731.0   988.135     16.3180  16.5152     0.0   49.2377
19795  19741.0   988.535     16.3314  16.5286     0.0   49.2616
19805  19751.0   988.935     16.3442  16.5414     0.0   49.2850
19815  19761.0   989.335     16.3584  16.5556     0.0   49.2899
19825  19771.0   989.735     16.3704  16.5676     0.0   49.2941
19835  19781.0   990.135     16.3837  16.5809     0.0   49.3158
19845  19791.0   990.535     16.3979  16.5952     0.0   49.3478
19855  19801.0   990.935     16.4107  16.6080     0.0   49.3490
19865  19811.0   991.335     16.4244  16.6216     0.0   49.3516
19875  19821.0   991.735     16.4368  16.6340     0.0   49.3709
19885  19831.0   992.135     16.4508  16.6481     0.0   49.3926
19895  19841.0   992.535     16.4639  16.6612     0.0   49.3704
19905  19851.0   992.935     16.4773  16.6745     0.0   49.3975
19915  19861.0   993.335     16.4911  16.6884     0.0   49.4361
19925  19871.0   993.735     16.5038  16.7010     0.0   49.4430
19935  19881.0   994.135     16.5168  16.7141     0.0   49.4674
19945  19891.0   994.535     16.5301  16.7273     0.0   49.4619
19955  19901.0   994.935     16.5441  16.7413     0.0   49.4946
19965  19911.0   995.335     16.5570  16.7542     0.0   49.4894
19975  19921.0   995.735     16.5700  16.7672     0.0   49.4897
19985  19931.0   996.135     16.5839  16.7811     0.0   49.5056
19995  19941.0   996.535     16.5972  16.7945     0.0   49.5169
20005  19951.0   996.935     16.6106  16.8078     0.0   49.5304
20015  19961.0   997.335     16.6239  16.8211     0.0   49.5690
20025  19971.0   997.735     16.6369  16.8341     0.0   49.5757
20035  19981.0   998.135     16.6506  16.8478     0.0   49.5783
20045  19991.0   998.535     16.6642  16.8614     0.0   49.5890
20055  20001.0   998.935     16.6775  16.8748     0.0   49.6018
20065  20011.0   999.335     16.6901  16.8874     0.0   49.6082
20075  20021.0   999.735     16.7044  16.9016     0.0   49.6496
20085  20031.0  1000.135     16.7173  16.9146     0.0   49.6518
20095  20041.0  1000.535     16.7312  16.9284     0.0   49.6743
20105  20051.0  1000.935     16.7440  16.9412     0.0   49.6793
20115  20061.0  1001.335     16.7570  16.9542     0.0   49.6794
20125  20071.0  1001.735     16.7705  16.9678     0.0   49.6951
20135  20081.0  1002.135     16.7844  16.9817     0.0   49.7149
20145  20091.0  1002.535     16.7964  16.9936     0.0   49.7252
20155  20101.0  1002.935     16.8105  17.0077     0.0   49.7274
20165  20111.0  1003.335     16.8236  17.0208     0.0   49.7618
20175  20121.0  1003.735     16.8371  17.0343     0.0   49.7857
20185  20131.0  1004.135     16.8499  17.0471     0.0   49.7940
20195  20141.0  1004.535     16.8648  17.0620     0.0   49.8135
20205  20151.0  1004.935     16.8771  17.0744     0.0   49.8392
20215  20161.0  1005.335     16.8907  17.0879     0.0   49.8084
20225  20171.0  1005.735     16.9042  17.1014     0.0   49.8245
20235  20181.0  1006.135     16.9171  17.1144     0.0   49.8335
20245  20191.0  1006.535     16.9307  17.1280     0.0   49.8576
20255  20201.0  1006.935     16.9448  17.1421     0.0   49.8565
20265  20211.0  1007.335     16.9573  17.1545     0.0   49.8952
20275  20221.0  1007.735     16.9703  17.1675     0.0   49.8970
20285  20231.0  1008.135     16.9841  17.1814     0.0   49.9147
20295  20241.0  1008.535     16.9967  17.1939     0.0   49.9292
20305  20251.0  1008.935     17.0101  17.2074     0.0   49.9396
20315  20261.0  1009.335     17.0237  17.2209     0.0   49.9406
20325  20271.0  1009.735     17.0375  17.2347     0.0   50.0010
20335  20281.0  1010.135     17.0505  17.2478     0.0   49.9798
20345  20291.0  1010.535     17.0640  17.2612     0.0   49.9804
20355  20301.0  1010.935     17.0772  17.2744     0.0   50.0088
20365  20311.0  1011.335     17.0906  17.2879     0.0   50.0189
20375  20321.0  1011.735     17.1040  17.3012     0.0   50.0365
20385  20331.0  1012.135     17.1170  17.3142     0.0   50.0309
20395  20341.0  1012.535     17.1303  17.3275     0.0   50.0528
20405  20351.0  1012.935     17.1440  17.3412     0.0   50.0801
20415  20361.0  1013.335     17.1573  17.3545     0.0   50.0718
20425  20371.0  1013.735     17.1707  17.3679     0.0   50.0862
20435  20381.0  1014.135     17.1841  17.3813     0.0   50.1352
20445  20391.0  1014.535     17.1960  17.3932     0.0   50.0861
20455  20401.0  1014.935     17.2105  17.4077     0.0   50.1246
20465  20411.0  1015.335     17.2232  17.4204     0.0   50.1334
20475  20421.0  1015.735     17.2374  17.4347     0.0   50.1643
20485  20431.0  1016.135     17.2507  17.4479     0.0   50.1719
20495  20441.0  1016.535     17.2642  17.4614     0.0   50.1881
20505  20451.0  1016.935     17.2781  17.4753     0.0   50.2120
20515  20461.0  1017.335     17.2912  17.4884     0.0   50.2233
20525  20471.0  1017.735     17.3035  17.5007     0.0   50.2203
20535  20481.0  1018.135     17.3179  17.5151     0.0   50.2204
20545  20491.0  1018.535     17.3311  17.5284     0.0   50.2529
20555  20501.0  1018.935     17.3443  17.5415     0.0   50.2574
20565  20511.0  1019.335     17.3566  17.5539     0.0   50.2444
20575  20521.0  1019.735     17.3714  17.5686     0.0   50.3010
20585  20531.0  1020.135     17.3846  17.5818     0.0   50.2941
20595  20541.0  1020.535     17.3978  17.5951     0.0   50.2994
20605  20551.0  1020.935     17.4103  17.6075     0.0   50.3094
20615  20561.0  1021.335     17.4241  17.6213     0.0   50.3354
20625  20571.0  1021.735     17.4371  17.6343     0.0   50.3409
20635  20581.0  1022.135     17.4508  17.6480     0.0   50.3632
20645  20591.0  1022.535     17.4637  17.6609     0.0   50.3867
20655  20601.0  1022.935     17.4782  17.6754     0.0   50.4138
20665  20611.0  1023.335     17.4908  17.6881     0.0   50.4068
20675  20621.0  1023.735     17.5038  17.7011     0.0   50.3785
20685  20631.0  1024.135     17.5171  17.7143     0.0   50.4122
20695  20641.0  1024.535     17.5314  17.7286     0.0   50.4490
20705  20651.0  1024.935     17.5432  17.7405     0.0   50.4299
20715  20661.0  1025.335     17.5575  17.7548     0.0   50.4369
20725  20671.0  1025.735     17.5708  17.7680     0.0   50.4549
20735  20681.0  1026.135     17.5842  17.7814     0.0   50.4812
20745  20691.0  1026.535     17.5972  17.7944     0.0   50.4805
20755  20701.0  1026.935     17.6115  17.8087     0.0   50.5179
20765  20711.0  1027.335     17.6230  17.8202     0.0   50.5126
20775  20721.0  1027.735     17.6374  17.8347     0.0   50.5194
20785  20731.0  1028.135     17.6508  17.8480     0.0   50.5370
20795  20741.0  1028.535     17.6646  17.8618     0.0   50.5346
20805  20751.0  1028.935     17.6778  17.8750     0.0   50.5427
20815  20761.0  1029.335     17.6901  17.8873     0.0   50.5773
20825  20771.0  1029.735     17.7038  17.9010     0.0   50.5699
20835  20781.0  1030.135     17.7173  17.9146     0.0   50.6007
20845  20791.0  1030.535     17.7310  17.9283     0.0   50.5958
20855  20801.0  1030.935     17.7444  17.9417     0.0   50.6242
20865  20811.0  1031.335     17.7570  17.9542     0.0   50.6256
20875  20821.0  1031.735     17.7709  17.9681     0.0   50.6318
20885  20831.0  1032.135     17.7846  17.9818     0.0   50.6598
20895  20841.0  1032.535     17.7972  17.9944     0.0   50.6663
20905  20851.0  1032.935     17.8095  18.0067     0.0   50.6479
20915  20861.0  1033.335     17.8235  18.0208     0.0   50.6882
20925  20871.0  1033.735     17.8375  18.0348     0.0   50.7061
20935  20881.0  1034.135     17.8509  18.0481     0.0   50.7102
20945  20891.0  1034.535     17.8633  18.0605     0.0   50.6980
20955  20901.0  1034.935     17.8769  18.0741     0.0   50.7257
20965  20911.0  1035.335     17.8903  18.0875     0.0   50.7304
20975  20921.0  1035.735     17.9043  18.1015     0.0   50.7560
20985  20931.0  1036.135     17.9178  18.1150     0.0   50.7640
20995  20941.0  1036.535     17.9299  18.1271     0.0   50.7854
21005  20951.0  1036.935     17.9432  18.1404     0.0   50.7704
21015  20961.0  1037.335     17.9567  18.1540     0.0   50.7815
21025  20971.0  1037.735     17.9708  18.1681     0.0   50.7673
21035  20981.0  1038.135     17.9842  18.1814     0.0   50.8104
21045  20991.0  1038.535     17.9978  18.1950     0.0   50.8418
21055  21001.0  1038.935     18.0112  18.2084     0.0   50.8481
21065  21011.0  1039.335     18.0236  18.2209     0.0   50.8580
21075  21021.0  1039.735     18.0376  18.2349     0.0   50.8806
21085  21031.0  1040.135     18.0502  18.2474     0.0   50.8282
21095  21041.0  1040.535     18.0638  18.2611     0.0   50.8824
21105  21051.0  1040.935     18.0777  18.2750     0.0   50.8952
21115  21061.0  1041.335     18.0913  18.2885     0.0   50.9191
21125  21071.0  1041.735     18.1041  18.3013     0.0   50.8932
21135  21081.0  1042.135     18.1167  18.3140     0.0   50.9003
21145  21091.0  1042.535     18.1310  18.3283     0.0   50.9499
21155  21101.0  1042.935     18.1436  18.3408     0.0   50.9368
21165  21111.0  1043.335     18.1574  18.3547     0.0   50.9644
21175  21121.0  1043.735     18.1715  18.3687     0.0   50.9890
21185  21131.0  1044.135     18.1842  18.3814     0.0   50.9697
21195  21141.0  1044.535     18.1963  18.3935     0.0   50.9823
21205  21151.0  1044.935     18.2108  18.4080     0.0   51.0065
21215  21161.0  1045.335     18.2245  18.4218     0.0   51.0028
21225  21171.0  1045.735     18.2364  18.4337     0.0   51.0229
21235  21181.0  1046.135     18.2511  18.4484     0.0   51.0290
21245  21191.0  1046.535     18.2643  18.4616     0.0   51.0307
21255  21201.0  1046.935     18.2769  18.4742     0.0   51.0600
21265  21211.0  1047.335     18.2907  18.4879     0.0   51.0328
21275  21221.0  1047.735     18.3039  18.5011     0.0   51.0791
21285  21231.0  1048.135     18.3179  18.5152     0.0   51.0897
21295  21241.0  1048.535     18.3315  18.5287     0.0   51.1159
21305  21251.0  1048.935     18.3437  18.5409     0.0   51.1002
21315  21261.0  1049.335     18.3593  18.5566     0.0   51.1112
21325  21271.0  1049.735     18.3708  18.5680     0.0   51.1350
21335  21281.0  1050.135     18.3845  18.5817     0.0   51.1481
21345  21291.0  1050.535     18.3978  18.5951     0.0   51.1798
21355  21301.0  1050.935     18.4107  18.6079     0.0   51.1731
21365  21311.0  1051.335     18.4243  18.6215     0.0   51.1481
21375  21321.0  1051.735     18.4367  18.6339     0.0   51.1857
21385  21331.0  1052.135     18.4522  18.6494     0.0   51.1884
21395  21341.0  1052.535     18.4641  18.6614     0.0   51.2012
21405  21351.0  1052.935     18.4773  18.6745     0.0   51.1977
21415  21361.0  1053.335     18.4897  18.6869     0.0   51.2202
21425  21371.0  1053.735     18.5035  18.7007     0.0   51.2388
21435  21381.0  1054.135     18.5183  18.7155     0.0   51.2572
21445  21391.0  1054.535     18.5312  18.7285     0.0   51.2387
21455  21401.0  1054.935     18.5443  18.7416     0.0   51.2428
21465  21411.0  1055.335     18.5579  18.7551     0.0   51.3002
21475  21421.0  1055.735     18.5702  18.7674     0.0   51.3063
21485  21431.0  1056.135     18.5831  18.7804     0.0   51.2932
21495  21441.0  1056.535     18.5971  18.7943     0.0   51.3136
21505  21451.0  1056.935     18.6114  18.8087     0.0   51.3283
21515  21461.0  1057.335     18.6238  18.8210     0.0   51.3402
21525  21471.0  1057.735     18.6372  18.8344     0.0   51.3259
21535  21481.0  1058.135     18.6505  18.8477     0.0   51.3330
21545  21491.0  1058.535     18.6636  18.8609     0.0   51.3619
21555  21501.0  1058.935     18.6772  18.8744     0.0   51.3669
21565  21511.0  1059.335     18.6910  18.8883     0.0   51.3656
21575  21521.0  1059.735     18.7035  18.9007     0.0   51.3732
21585  21531.0  1060.135     18.7169  18.9142     0.0   51.3988
21595  21541.0  1060.535     18.7301  18.9274     0.0   51.4004
21605  21551.0  1060.935     18.7444  18.9416     0.0   51.4142
21615  21561.0  1061.335     18.7578  18.9551     0.0   51.4291
21625  21571.0  1061.735     18.7710  18.9682     0.0   51.4277
21635  21581.0  1062.135     18.7840  18.9812     0.0   51.4402
21645  21591.0  1062.535     18.7971  18.9943     0.0   51.4520
21655  21601.0  1062.935     18.8099  19.0071     0.0   51.4634
21665  21611.0  1063.335     18.8244  19.0217     0.0   51.4654
21675  21621.0  1063.735     18.8381  19.0353     0.0   51.4760
21685  21631.0  1064.135     18.8512  19.0484     0.0   51.4465
21695  21641.0  1064.535     18.8634  19.0606     0.0   51.4846
21705  21651.0  1064.935     18.8776  19.0749     0.0   51.5386
21715  21661.0  1065.335     18.8911  19.0883     0.0   51.5200
21725  21671.0  1065.735     18.9041  19.1014     0.0   51.5340
21735  21681.0  1066.135     18.9173  19.1145     0.0   51.5278
21745  21691.0  1066.535     18.9301  19.1273     0.0   51.5518
21755  21701.0  1066.935     18.9445  19.1418     0.0   51.5759
21765  21711.0  1067.335     18.9580  19.1552     0.0   51.5795
21775  21721.0  1067.735     18.9712  19.1684     0.0   51.5857
21785  21731.0  1068.135     18.9850  19.1823     0.0   51.5914
21795  21741.0  1068.535     18.9962  19.1935     0.0   51.5953
21805  21751.0  1068.935     19.0111  19.2084     0.0   51.6152
21815  21761.0  1069.335     19.0252  19.2224     0.0   51.6315
21825  21771.0  1069.735     19.0374  19.2347     0.0   51.6033
21835  21781.0  1070.135     19.0510  19.2483     0.0   51.6310
21845  21791.0  1070.535     19.0653  19.2625     0.0   51.6593
21855  21801.0  1070.935     19.0780  19.2752     0.0   51.6574
21865  21811.0  1071.335     19.0916  19.2888     0.0   51.6672
21875  21821.0  1071.735     19.1046  19.3019     0.0   51.6692
21885  21831.0  1072.135     19.1172  19.3144     0.0   51.6836
21895  21841.0  1072.535     19.1309  19.3281     0.0   51.6951
21905  21851.0  1072.935     19.1434  19.3407     0.0   51.7028
21915  21861.0  1073.335     19.1573  19.3545     0.0   51.7073
21925  21871.0  1073.735     19.1699  19.3671     0.0   51.7226
21935  21881.0  1074.135     19.1834  19.3807     0.0   51.7182
21945  21891.0  1074.535     19.1975  19.3948     0.0   51.7309
21955  21901.0  1074.935     19.2101  19.4073     0.0   51.7576
21965  21911.0  1075.335     19.2243  19.4215     0.0   51.7614
21975  21921.0  1075.735     19.2372  19.4344     0.0   51.7358
21985  21931.0  1076.135     19.2507  19.4479     0.0   51.7645
21995  21941.0  1076.535     19.2642  19.4614     0.0   51.7729
22005  21951.0  1076.935     19.2767  19.4740     0.0   51.7875
22015  21961.0  1077.335     19.2908  19.4880     0.0   51.8104
22025  21971.0  1077.735     19.3042  19.5014     0.0   51.8085
22035  21981.0  1078.135     19.3173  19.5146     0.0   51.8161
22045  21991.0  1078.535     19.3305  19.5278     0.0   51.8171
22055  22001.0  1078.935     19.3440  19.5412     0.0   51.8439
22065  22011.0  1079.335     19.3576  19.5548     0.0   51.8558
22075  22021.0  1079.735     19.3710  19.5683     0.0   51.8486
22085  22031.0  1080.135     19.3842  19.5814     0.0   51.8563
22095  22041.0  1080.535     19.3973  19.5945     0.0   51.8775
22105  22051.0  1080.935     19.4105  19.6078     0.0   51.8936
22115  22061.0  1081.335     19.4241  19.6213     0.0   51.8915
22125  22071.0  1081.735     19.4382  19.6355     0.0   51.9305
22135  22081.0  1082.135     19.4507  19.6479     0.0   51.8980
22145  22091.0  1082.535     19.4648  19.6621     0.0   51.9245
22155  22101.0  1082.935     19.4777  19.6749     0.0   51.8976
22165  22111.0  1083.335     19.4906  19.6879     0.0   51.9255
22175  22121.0  1083.735     19.5047  19.7019     0.0   51.9348
22185  22131.0  1084.135     19.5170  19.7142     0.0   51.9485
22195  22141.0  1084.535     19.5315  19.7287     0.0   51.9585
22205  22151.0  1084.935     19.5437  19.7410     0.0   51.9419
22215  22161.0  1085.335     19.5582  19.7554     0.0   51.9756
22225  22171.0  1085.735     19.5710  19.7682     0.0   51.9746
22235  22181.0  1086.135     19.5843  19.7815     0.0   51.9848
22245  22191.0  1086.535     19.5962  19.7935     0.0   51.9564
22255  22201.0  1086.935     19.6101  19.8073     0.0   52.0038
22265  22211.0  1087.335     19.6255  19.8227     0.0   52.0110
22275  22221.0  1087.735     19.6370  19.8343     0.0   52.0297
22285  22231.0  1088.135     19.6502  19.8474     0.0   52.0425
22295  22241.0  1088.535     19.6642  19.8614     0.0   52.0348
22305  22251.0  1088.935     19.6789  19.8761     0.0   52.0345
22315  22261.0  1089.335     19.6902  19.8875     0.0   52.0440
22325  22271.0  1089.735     19.7052  19.9024     0.0   52.0603
22335  22281.0  1090.135     19.7179  19.9152     0.0   52.0556
22345  22291.0  1090.535     19.7315  19.9287     0.0   52.0748
22355  22301.0  1090.935     19.7437  19.9409     0.0   52.0575
22365  22311.0  1091.335     19.7578  19.9551     0.0   52.0934
22375  22321.0  1091.735     19.7712  19.9684     0.0   52.1299
22385  22331.0  1092.135     19.7848  19.9820     0.0   52.1238
22395  22341.0  1092.535     19.7979  19.9952     0.0   52.1194
22405  22351.0  1092.935     19.8109  20.0081     0.0   52.1058
22415  22361.0  1093.335     19.8250  20.0222     0.0   52.1456
22425  22371.0  1093.735     19.8374  20.0346     0.0   52.1235
22435  22381.0  1094.135     19.8519  20.0491     0.0   52.1673
22445  22391.0  1094.535     19.8647  20.0619     0.0   52.1439
22455  22401.0  1094.935     19.8774  20.0746     0.0   52.1388
22465  22411.0  1095.335     19.8912  20.0884     0.0   52.1601
22475  22421.0  1095.735     19.9045  20.1017     0.0   52.1503
22485  22431.0  1096.135     19.9181  20.1153     0.0   52.1791
22495  22441.0  1096.535     19.9303  20.1275     0.0   52.1919
22505  22451.0  1096.935     19.9437  20.1409     0.0   52.1899
22515  22461.0  1097.335     19.9583  20.1556     0.0   52.2111
22525  22471.0  1097.735     19.9710  20.1683     0.0   52.1966
22535  22481.0  1098.135     19.9842  20.1814     0.0   52.2122
22545  22491.0  1098.535     19.9976  20.1949     0.0   52.2262
22555  22501.0  1098.935     20.0111  20.2084     0.0   52.2258
22565  22511.0  1099.335     20.0241  20.2213     0.0   52.2415
22575  22521.0  1099.735     20.0374  20.2346     0.0   52.2326
22585  22531.0  1100.135     20.0515  20.2487     0.0   52.2335
22595  22541.0  1100.535     20.0634  20.2606     0.0   52.2652
22605  22551.0  1100.935     20.0782  20.2754     0.0   52.2724
22615  22561.0  1101.335     20.0918  20.2890     0.0   52.2564
22625  22571.0  1101.735     20.1047  20.3019     0.0   52.2996
22635  22581.0  1102.135     20.1168  20.3140     0.0   52.3131
22645  22591.0  1102.535     20.1315  20.3287     0.0   52.3244
22655  22601.0  1102.935     20.1444  20.3416     0.0   52.3065
22665  22611.0  1103.335     20.1567  20.3539     0.0   52.2894
22675  22621.0  1103.735     20.1709  20.3681     0.0   52.3526
22685  22631.0  1104.135     20.1846  20.3819     0.0   52.3194
22695  22641.0  1104.535     20.1981  20.3953     0.0   52.3466
22705  22651.0  1104.935     20.2101  20.4074     0.0   52.3316
22715  22661.0  1105.335     20.2235  20.4207     0.0   52.3541
22725  22671.0  1105.735     20.2365  20.4337     0.0   52.3231
22735  22681.0  1106.135     20.2506  20.4478     0.0   52.3332
22745  22691.0  1106.535     20.2630  20.4603     0.0   52.3600
22755  22701.0  1106.935     20.2780  20.4752     0.0   52.3766
22765  22711.0  1107.335     20.2914  20.4886     0.0   52.4019
22775  22721.0  1107.735     20.3039  20.5011     0.0   52.4127
22785  22731.0  1108.135     20.3171  20.5143     0.0   52.4176
22795  22741.0  1108.535     20.3302  20.5274     0.0   52.3990
22805  22751.0  1108.935     20.3435  20.5408     0.0   52.4118
22815  22761.0  1109.335     20.3566  20.5538     0.0   52.4193
22825  22771.0  1109.735     20.3710  20.5682     0.0   52.4264
22835  22781.0  1110.135     20.3836  20.5808     0.0   52.4472
22845  22791.0  1110.535     20.3980  20.5953     0.0   52.4473
22855  22801.0  1110.935     20.4104  20.6076     0.0   52.4349
22865  22811.0  1111.335     20.4232  20.6204     0.0   52.4700
22875  22821.0  1111.735     20.4373  20.6346     0.0   52.4649
22885  22831.0  1112.135     20.4505  20.6478     0.0   52.4870
22895  22841.0  1112.535     20.4645  20.6617     0.0   52.4918
22905  22851.0  1112.935     20.4771  20.6743     0.0   52.5124
22915  22861.0  1113.335     20.4913  20.6885     0.0   52.5029
22925  22871.0  1113.735     20.5051  20.7023     0.0   52.5144
22935  22881.0  1114.135     20.5181  20.7153     0.0   52.5005
22945  22891.0  1114.535     20.5317  20.7290     0.0   52.5112
22955  22901.0  1114.935     20.5433  20.7406     0.0   52.5293
22965  22911.0  1115.335     20.5579  20.7552     0.0   52.5595
22975  22921.0  1115.735     20.5706  20.7679     0.0   52.5437
22985  22931.0  1116.135     20.5838  20.7810     0.0   52.5419
22995  22941.0  1116.535     20.5979  20.7951     0.0   52.5538
23005  22951.0  1116.935     20.6111  20.8083     0.0   52.5670
23015  22961.0  1117.335     20.6241  20.8213     0.0   52.5760
23025  22971.0  1117.735     20.6372  20.8344     0.0   52.5809
23035  22981.0  1118.135     20.6514  20.8486     0.0   52.5904
23045  22991.0  1118.535     20.6644  20.8616     0.0   52.5855
23055  23001.0  1118.935     20.6770  20.8743     0.0   52.6060
23065  23011.0  1119.335     20.6905  20.8877     0.0   52.6124
23075  23021.0  1119.735     20.7045  20.9017     0.0   52.6377
23085  23031.0  1120.135     20.7183  20.9155     0.0   52.6324
23095  23041.0  1120.535     20.7310  20.9283     0.0   52.6306
23105  23051.0  1120.935     20.7449  20.9422     0.0   52.6580
23115  23061.0  1121.335     20.7578  20.9550     0.0   52.6564
23125  23071.0  1121.735     20.7706  20.9679     0.0   52.6620
23135  23081.0  1122.135     20.7844  20.9817     0.0   52.6579
23145  23091.0  1122.535     20.7968  20.9941     0.0   52.6577
23155  23101.0  1122.935     20.8105  21.0077     0.0   52.6944
23165  23111.0  1123.335     20.8247  21.0219     0.0   52.6865
23175  23121.0  1123.735     20.8388  21.0360     0.0   52.6740
23185  23131.0  1124.135     20.8506  21.0479     0.0   52.6717
23195  23141.0  1124.535     20.8646  21.0618     0.0   52.7165
23205  23151.0  1124.935     20.8779  21.0751     0.0   52.7077
23215  23161.0  1125.335     20.8904  21.0876     0.0   52.7134
23225  23171.0  1125.735     20.9042  21.1014     0.0   52.7229
23235  23181.0  1126.135     20.9172  21.1145     0.0   52.7221
23245  23191.0  1126.535     20.9307  21.1279     0.0   52.7263
23255  23201.0  1126.935     20.9446  21.1418     0.0   52.7507
23265  23211.0  1127.335     20.9569  21.1542     0.0   52.7468
23275  23221.0  1127.735     20.9705  21.1678     0.0   52.7549
23285  23231.0  1128.135     20.9844  21.1817     0.0   52.7631
23295  23241.0  1128.535     20.9994  21.1966     0.0   52.7829
23305  23251.0  1128.935     21.0111  21.2084     0.0   52.7698
23315  23261.0  1129.335     21.0241  21.2213     0.0   52.7795
23325  23271.0  1129.735     21.0371  21.2343     0.0   52.7912
23335  23281.0  1130.135     21.0506  21.2478     0.0   52.7994
23345  23291.0  1130.535     21.0644  21.2616     0.0   52.8093
23355  23301.0  1130.935     21.0778  21.2751     0.0   52.8157
23365  23311.0  1131.335     21.0908  21.2880     0.0   52.8034
23375  23321.0  1131.735     21.1039  21.3011     0.0   52.8184
23385  23331.0  1132.135     21.1173  21.3146     0.0   52.8102
23395  23341.0  1132.535     21.1313  21.3285     0.0   52.8106
23405  23351.0  1132.935     21.1442  21.3415     0.0   52.8222
23415  23361.0  1133.335     21.1569  21.3542     0.0   52.8409
23425  23371.0  1133.735     21.1709  21.3682     0.0   52.8585
23435  23381.0  1134.135     21.1846  21.3818     0.0   52.8451
23445  23391.0  1134.535     21.1971  21.3943     0.0   52.8873
23455  23401.0  1134.935     21.2103  21.4075     0.0   52.8604
23465  23411.0  1135.335     21.2244  21.4217     0.0   52.8872
23475  23421.0  1135.735     21.2372  21.4345     0.0   52.8637
23485  23431.0  1136.135     21.2512  21.4484     0.0   52.8669
23495  23441.0  1136.535     21.2642  21.4615     0.0   52.9055
23505  23451.0  1136.935     21.2776  21.4748     0.0   52.9026
23515  23461.0  1137.335     21.2916  21.4889     0.0   52.9280
23525  23471.0  1137.735     21.3068  21.5040     0.0   52.9273
23535  23481.0  1138.135     21.3177  21.5149     0.0   52.9104
23545  23491.0  1138.535     21.3313  21.5285     0.0   52.9439
23555  23501.0  1138.935     21.3443  21.5415     0.0   52.9244
23565  23511.0  1139.335     21.3585  21.5557     0.0   52.9693
23575  23521.0  1139.735     21.3708  21.5680     0.0   52.9564
23585  23531.0  1140.135     21.3851  21.5824     0.0   52.9647
23595  23541.0  1140.535     21.3978  21.5951     0.0   52.9656
23605  23551.0  1140.935     21.4102  21.6075     0.0   52.9538
23615  23561.0  1141.335     21.4237  21.6209     0.0   52.9799
23625  23571.0  1141.735     21.4365  21.6337     0.0   52.9693
23635  23581.0  1142.135     21.4513  21.6485     0.0   53.0006
23645  23591.0  1142.535     21.4637  21.6609     0.0   52.9868
23655  23601.0  1142.935     21.4778  21.6750     0.0   53.0097
23665  23611.0  1143.335     21.4914  21.6886     0.0   53.0079
23675  23621.0  1143.735     21.5034  21.7006     0.0   53.0209
23685  23631.0  1144.135     21.5179  21.7151     0.0   53.0265
23695  23641.0  1144.535     21.5310  21.7282     0.0   53.0196
23705  23651.0  1144.935     21.5445  21.7418     0.0   53.0358
23715  23661.0  1145.335     21.5575  21.7547     0.0   53.0112
23725  23671.0  1145.735     21.5707  21.7679     0.0   53.0437
23735  23681.0  1146.135     21.5839  21.7811     0.0   53.0311
23745  23691.0  1146.535     21.5977  21.7950     0.0   53.0502
23755  23701.0  1146.935     21.6104  21.8077     0.0   53.0895
23765  23711.0  1147.335     21.6237  21.8209     0.0   53.0576
23775  23721.0  1147.735     21.6369  21.8341     0.0   53.0807
23785  23731.0  1148.135     21.6521  21.8493     0.0   53.0926
23795  23741.0  1148.535     21.6648  21.8620     0.0   53.0835
23805  23751.0  1148.935     21.6775  21.8747     0.0   53.0749
23815  23761.0  1149.335     21.6917  21.8890     0.0   53.1109
23825  23771.0  1149.735     21.7049  21.9022     0.0   53.0942
23835  23781.0  1150.135     21.7185  21.9157     0.0   53.1114
23845  23791.0  1150.535     21.7314  21.9286     0.0   53.1061
23855  23801.0  1150.935     21.7439  21.9411     0.0   53.1206
23865  23811.0  1151.335     21.7573  21.9545     0.0   53.1257
23875  23821.0  1151.735     21.7706  21.9678     0.0   53.1388
23885  23831.0  1152.135     21.7834  21.9807     0.0   53.1234
23895  23841.0  1152.535     21.7973  21.9946     0.0   53.1451
23905  23851.0  1152.935     21.8111  22.0084     0.0   53.1281
23915  23861.0  1153.335     21.8256  22.0229     0.0   53.1332
23925  23871.0  1153.735     21.8377  22.0349     0.0   53.1774
23935  23881.0  1154.135     21.8510  22.0482     0.0   53.1619
23945  23891.0  1154.535     21.8641  22.0613     0.0   53.1778
23955  23901.0  1154.935     21.8777  22.0749     0.0   53.1816
23965  23911.0  1155.335     21.8918  22.0891     0.0   53.1753
23975  23921.0  1155.735     21.9045  22.1017     0.0   53.1751
23985  23931.0  1156.135     21.9178  22.1150     0.0   53.1936
23995  23941.0  1156.535     21.9307  22.1279     0.0   53.2126
24005  23951.0  1156.935     21.9443  22.1416     0.0   53.2100
24015  23961.0  1157.335     21.9575  22.1547     0.0   53.1876
24025  23971.0  1157.735     21.9718  22.1690     0.0   53.2068
24035  23981.0  1158.135     21.9850  22.1823     0.0   53.2090
24045  23991.0  1158.535     21.9979  22.1952     0.0   53.2002
24055  24001.0  1158.935     22.0114  22.2086     0.0   53.2268
24065  24011.0  1159.335     22.0243  22.2216     0.0   53.2263
24075  24021.0  1159.735     22.0375  22.2347     0.0   53.2371
24085  24031.0  1160.135     22.0505  22.2477     0.0   53.2427
24095  24041.0  1160.535     22.0639  22.2611     0.0   53.2534
24105  24051.0  1160.935     22.0793  22.2765     0.0   53.2616
24115  24061.0  1161.335     22.0907  22.2880     0.0   53.2827
24125  24071.0  1161.735     22.1046  22.3019     0.0   53.2744
24135  24081.0  1162.135     22.1179  22.3151     0.0   53.2873
24145  24091.0  1162.535     22.1305  22.3277     0.0   53.2953
24155  24101.0  1162.935     22.1451  22.3423     0.0   53.3197
24165  24111.0  1163.335     22.1580  22.3552     0.0   53.2990
24175  24121.0  1163.735     22.1703  22.3676     0.0   53.2997
24185  24131.0  1164.135     22.1837  22.3809     0.0   53.2978
24195  24141.0  1164.535     22.1979  22.3951     0.0   53.3131
24205  24151.0  1164.935     22.2106  22.4079     0.0   53.3254
24215  24161.0  1165.335     22.2249  22.4221     0.0   53.3328
24225  24171.0  1165.735     22.2375  22.4347     0.0   53.3257
24235  24181.0  1166.135     22.2499  22.4471     0.0   53.3278
24245  24191.0  1166.535     22.2635  22.4607     0.0   53.3452
24255  24201.0  1166.935     22.2770  22.4742     0.0   53.3529
24265  24211.0  1167.335     22.2917  22.4890     0.0   53.3242
24275  24221.0  1167.735     22.3044  22.5016     0.0   53.3358
24285  24231.0  1168.135     22.3183  22.5155     0.0   53.3672
24295  24241.0  1168.535     22.3314  22.5286     0.0   53.3822
24305  24251.0  1168.935     22.3436  22.5408     0.0   53.3738
24315  24261.0  1169.335     22.3581  22.5554     0.0   53.3747
24325  24271.0  1169.735     22.3705  22.5677     0.0   53.3826
24335  24281.0  1170.135     22.3844  22.5817     0.0   53.4002
24345  24291.0  1170.535     22.3981  22.5953     0.0   53.3948
24355  24301.0  1170.935     22.4111  22.6083     0.0   53.3887
24365  24311.0  1171.335     22.4243  22.6215     0.0   53.4190
24375  24321.0  1171.735     22.4380  22.6352     0.0   53.3792
24385  24331.0  1172.135     22.4500  22.6472     0.0   53.4110
24395  24341.0  1172.535     22.4642  22.6614     0.0   53.4438
24405  24351.0  1172.935     22.4768  22.6740     0.0   53.4280
24415  24361.0  1173.335     22.4912  22.6884     0.0   53.4363
24425  24371.0  1173.735     22.5041  22.7013     0.0   53.4362
24435  24381.0  1174.135     22.5178  22.7150     0.0   53.4566
24445  24391.0  1174.535     22.5314  22.7286     0.0   53.4644
24455  24401.0  1174.935     22.5432  22.7404     0.0   53.4649
24465  24411.0  1175.335     22.5578  22.7550     0.0   53.4746
24475  24421.0  1175.735     22.5722  22.7694     0.0   53.4795
24485  24431.0  1176.135     22.5844  22.7817     0.0   53.4712
24495  24441.0  1176.535     22.5979  22.7951     0.0   53.4758
24505  24451.0  1176.935     22.6112  22.8084     0.0   53.5001
24515  24461.0  1177.335     22.6254  22.8227     0.0   53.4942
24525  24471.0  1177.735     22.6368  22.8340     0.0   53.5189
24535  24481.0  1178.135     22.6519  22.8492     0.0   53.5076
24545  24491.0  1178.535     22.6646  22.8618     0.0   53.4909
24555  24501.0  1178.935     22.6791  22.8763     0.0   53.5244
24565  24511.0  1179.335     22.6910  22.8882     0.0   53.5218
24575  24521.0  1179.735     22.7045  22.9017     0.0   53.5150
24585  24531.0  1180.135     22.7176  22.9148     0.0   53.4928
24595  24541.0  1180.535     22.7301  22.9274     0.0   53.5264
24605  24551.0  1180.935     22.7446  22.9418     0.0   53.5341
24615  24561.0  1181.335     22.7576  22.9548     0.0   53.5290
24625  24571.0  1181.735     22.7727  22.9700     0.0   53.5704
24635  24581.0  1182.135     22.7839  22.9811     0.0   53.5500
24645  24591.0  1182.535     22.7979  22.9951     0.0   53.5548
24655  24601.0  1182.935     22.8111  23.0083     0.0   53.5503
24665  24611.0  1183.335     22.8252  23.0224     0.0   53.5566
24675  24621.0  1183.735     22.8377  23.0349     0.0   53.5801
24685  24631.0  1184.135     22.8509  23.0481     0.0   53.5747
24695  24641.0  1184.535     22.8643  23.0615     0.0   53.5793
24705  24651.0  1184.935     22.8769  23.0742     0.0   53.5835
24715  24661.0  1185.335     22.8913  23.0886     0.0   53.5910
24725  24671.0  1185.735     22.9034  23.1006     0.0   53.5699
24735  24681.0  1186.135     22.9181  23.1153     0.0   53.6262
24745  24691.0  1186.535     22.9306  23.1278     0.0   53.6112
24755  24701.0  1186.935     22.9443  23.1415     0.0   53.6171
24765  24711.0  1187.335     22.9586  23.1558     0.0   53.6407
24775  24721.0  1187.735     22.9711  23.1683     0.0   53.6259
24785  24731.0  1188.135     22.9846  23.1818     0.0   53.6376
24795  24741.0  1188.535     22.9974  23.1946     0.0   53.6382
24805  24751.0  1188.935     23.0106  23.2079     0.0   53.6377
24815  24761.0  1189.335     23.0242  23.2215     0.0   53.6268
24825  24771.0  1189.735     23.0390  23.2363     0.0   53.6617
24835  24781.0  1190.135     23.0516  23.2489     0.0   53.6466
24845  24791.0  1190.535     23.0647  23.2619     0.0   53.6728
24855  24801.0  1190.935     23.0785  23.2757     0.0   53.6588
24865  24811.0  1191.335     23.0909  23.2881     0.0   53.6606
24875  24821.0  1191.735     23.1050  23.3022     0.0   53.6703
24885  24831.0  1192.135     23.1175  23.3148     0.0   53.6575
24895  24841.0  1192.535     23.1323  23.3295     0.0   53.6861
24905  24851.0  1192.935     23.1446  23.3419     0.0   53.6968
24915  24861.0  1193.335     23.1581  23.3553     0.0   53.6990
24925  24871.0  1193.735     23.1721  23.3693     0.0   53.6906
24935  24881.0  1194.135     23.1850  23.3822     0.0   53.7140
24945  24891.0  1194.535     23.1986  23.3958     0.0   53.6901
24955  24901.0  1194.935     23.2112  23.4084     0.0   53.7357
24965  24911.0  1195.335     23.2249  23.4222     0.0   53.6962
24975  24921.0  1195.735     23.2377  23.4350     0.0   53.7028
24985  24931.0  1196.135     23.2511  23.4483     0.0   53.7308
24995  24941.0  1196.535     23.2630  23.4602     0.0   53.7307
25005  24951.0  1196.935     23.2780  23.4752     0.0   53.7404
25015  24961.0  1197.335     23.2912  23.4884     0.0   53.7647
25025  24971.0  1197.735     23.3042  23.5014     0.0   53.7505
25035  24981.0  1198.135     23.3175  23.5147     0.0   53.7617
25045  24991.0  1198.535     23.3321  23.5293     0.0   53.7324
25055  25001.0  1198.935     23.3437  23.5409     0.0   53.7542
25065  25011.0  1199.335     23.3570  23.5542     0.0   53.7383
25075  25021.0  1199.735     23.3711  23.5684     0.0   53.7972
25085  25031.0  1200.135     23.3834  23.5806     0.0   53.7756
25095  25041.0  1200.535     23.3985  23.5957     0.0   53.7813
25105  25051.0  1200.935     23.4122  23.6094     0.0   53.7928
25115  25061.0  1201.335     23.4234  23.6207     0.0   53.8035
25125  25071.0  1201.735     23.4369  23.6341     0.0   53.7778
25135  25081.0  1202.135     23.4506  23.6478     0.0   53.7881
25145  25091.0  1202.535     23.4648  23.6620     0.0   53.8149
25155  25101.0  1202.935     23.4771  23.6744     0.0   53.8094
25165  25111.0  1203.335     23.4923  23.6895     0.0   53.8157
25175  25121.0  1203.735     23.5053  23.7025     0.0   53.8234
25185  25131.0  1204.135     23.5172  23.7144     0.0   53.8186
25195  25141.0  1204.535     23.5318  23.7291     0.0   53.8560
25205  25151.0  1204.935     23.5436  23.7409     0.0   53.8081
25215  25161.0  1205.335     23.5580  23.7552     0.0   53.8156
25225  25171.0  1205.735     23.5729  23.7701     0.0   53.8515
25235  25181.0  1206.135     23.5849  23.7821     0.0   53.8398
25245  25191.0  1206.535     23.5985  23.7957     0.0   53.8614
25255  25201.0  1206.935     23.6127  23.8099     0.0   53.8603
25265  25211.0  1207.335     23.6243  23.8215     0.0   53.8486
25275  25221.0  1207.735     23.6372  23.8345     0.0   53.8670
25285  25231.0  1208.135     23.6511  23.8484     0.0   53.8749
25295  25241.0  1208.535     23.6644  23.8616     0.0   53.8696
25305  25251.0  1208.935     23.6780  23.8752     0.0   53.8969
25315  25261.0  1209.335     23.6920  23.8892     0.0   53.8821
25325  25271.0  1209.735     23.7041  23.9013     0.0   53.8585
25335  25281.0  1210.135     23.7177  23.9150     0.0   53.8843
25345  25291.0  1210.535     23.7312  23.9285     0.0   53.8935
25355  25301.0  1210.935     23.7448  23.9420     0.0   53.8898
25365  25311.0  1211.335     23.7575  23.9547     0.0   53.9107
25375  25321.0  1211.735     23.7719  23.9691     0.0   53.9179
25385  25331.0  1212.135     23.7836  23.9808     0.0   53.9268
25395  25341.0  1212.535     23.7990  23.9962     0.0   53.9407
25405  25351.0  1212.935     23.8098  24.0070     0.0   53.9306
25415  25361.0  1213.335     23.8235  24.0207     0.0   53.9224
25425  25371.0  1213.735     23.8377  24.0350     0.0   53.9025
25435  25381.0  1214.135     23.8509  24.0481     0.0   53.9243
25445  25391.0  1214.535     23.8637  24.0610     0.0   53.9349
25455  25401.0  1214.935     23.8775  24.0747     0.0   53.9453
25465  25411.0  1215.335     23.8919  24.0892     0.0   53.9453
25475  25421.0  1215.735     23.9051  24.1023     0.0   53.9620
25485  25431.0  1216.135     23.9171  24.1144     0.0   53.9547
25495  25441.0  1216.535     23.9308  24.1280     0.0   53.9756
25505  25451.0  1216.935     23.9454  24.1427     0.0   53.9628
25515  25461.0  1217.335     23.9590  24.1562     0.0   53.9859
25525  25471.0  1217.735     23.9714  24.1686     0.0   53.9868
25535  25481.0  1218.135     23.9838  24.1810     0.0   53.9705
25545  25491.0  1218.535     23.9974  24.1946     0.0   53.9490
25555  25501.0  1218.935     24.0114  24.2086     0.0   53.9882
25565  25511.0  1219.335     24.0259  24.2232     0.0   54.0092
25575  25521.0  1219.735     24.0391  24.2363     0.0   53.9975
25585  25531.0  1220.135     24.0506  24.2479     0.0   53.9987
25595  25541.0  1220.535     24.0641  24.2613     0.0   53.9881
25605  25551.0  1220.935     24.0776  24.2748     0.0   54.0216
25615  25561.0  1221.335     24.0916  24.2888     0.0   54.0102
25625  25571.0  1221.735     24.1045  24.3017     0.0   53.9861
25635  25581.0  1222.135     24.1182  24.3154     0.0   54.0207
25645  25591.0  1222.535     24.1309  24.3281     0.0   54.0374
25655  25601.0  1222.935     24.1456  24.3428     0.0   54.0156
25665  25611.0  1223.335     24.1589  24.3562     0.0   54.0519
25675  25621.0  1223.735     24.1718  24.3690     0.0   54.0496
25685  25631.0  1224.135     24.1848  24.3820     0.0   54.0313
25695  25641.0  1224.535     24.1978  24.3950     0.0   54.0512
25705  25651.0  1224.935     24.2116  24.4088     0.0   54.0670
25715  25661.0  1225.335     24.2243  24.4215     0.0   54.0745
25725  25671.0  1225.735     24.2367  24.4339     0.0   54.0252
25735  25681.0  1226.135     24.2490  24.4462     0.0   54.0338
25745  25691.0  1226.535     24.2640  24.4612     0.0   54.0595
25755  25701.0  1226.935     24.2769  24.4741     0.0   54.0752
25765  25711.0  1227.335     24.2916  24.4888     0.0   54.0939
25775  25721.0  1227.735     24.3050  24.5022     0.0   54.0635
25785  25731.0  1228.135     24.3171  24.5143     0.0   54.0754
25795  25741.0  1228.535     24.3309  24.5282     0.0   54.0796
25805  25751.0  1228.935     24.3448  24.5420     0.0   54.1128
25815  25761.0  1229.335     24.3572  24.5544     0.0   54.0959
25825  25771.0  1229.735     24.3709  24.5681     0.0   54.1256
25835  25781.0  1230.135     24.3845  24.5818     0.0   54.1178
25845  25791.0  1230.535     24.3983  24.5955     0.0   54.1256
25855  25801.0  1230.935     24.4116  24.6088     0.0   54.1296
25865  25811.0  1231.335     24.4250  24.6223     0.0   54.1308
25875  25821.0  1231.735     24.4367  24.6339     0.0   54.1139
25885  25831.0  1232.135     24.4522  24.6495     0.0   54.1385
25895  25841.0  1232.535     24.4644  24.6617     0.0   54.1196
25905  25851.0  1232.935     24.4764  24.6736     0.0   54.1506
25915  25861.0  1233.335     24.4916  24.6888     0.0   54.1614
25925  25871.0  1233.735     24.5052  24.7025     0.0   54.1489
25935  25881.0  1234.135     24.5171  24.7143     0.0   54.1173
25945  25891.0  1234.535     24.5305  24.7277     0.0   54.1283
25955  25901.0  1234.935     24.5450  24.7423     0.0   54.1543
25965  25911.0  1235.335     24.5575  24.7547     0.0   54.1570
25975  25921.0  1235.735     24.5720  24.7692     0.0   54.1914
25985  25931.0  1236.135     24.5839  24.7811     0.0   54.2035
25995  25941.0  1236.535     24.5981  24.7954     0.0   54.1980
26005  25951.0  1236.935     24.6120  24.8093     0.0   54.1881
26015  25961.0  1237.335     24.6247  24.8220     0.0   54.1857
26025  25971.0  1237.735     24.6377  24.8349     0.0   54.2031
26035  25981.0  1238.135     24.6518  24.8490     0.0   54.1937
26045  25991.0  1238.535     24.6637  24.8609     0.0   54.1908
26055  26001.0  1238.935     24.6771  24.8744     0.0   54.1886
26065  26011.0  1239.335     24.6914  24.8887     0.0   54.2087
26075  26021.0  1239.735     24.7040  24.9012     0.0   54.2170
26085  26031.0  1240.135     24.7176  24.9148     0.0   54.2161
26095  26041.0  1240.535     24.7309  24.9281     0.0   54.2163
26105  26051.0  1240.935     24.7443  24.9415     0.0   54.1972
26115  26061.0  1241.335     24.7583  24.9555     0.0   54.2312
26125  26071.0  1241.735     24.7713  24.9685     0.0   54.2232
26135  26081.0  1242.135     24.7845  24.9818     0.0   54.2342
26145  26091.0  1242.535     24.7980  24.9952     0.0   54.2076
26155  26101.0  1242.935     24.8117  25.0089     0.0   54.2465
26165  26111.0  1243.335     24.8241  25.0213     0.0   54.2255
26175  26121.0  1243.735     24.8368  25.0341     0.0   54.2357
26185  26131.0  1244.135     24.8505  25.0477     0.0   54.2429
26195  26141.0  1244.535     24.8651  25.0623     0.0   54.2747
26205  26151.0  1244.935     24.8780  25.0752     0.0   54.2570
26215  26161.0  1245.335     24.8913  25.0885     0.0   54.2620
26225  26171.0  1245.735     24.9045  25.1017     0.0   54.2512
26235  26181.0  1246.135     24.9173  25.1146     0.0   54.2343
26245  26191.0  1246.535     24.9312  25.1285     0.0   54.2381
26255  26201.0  1246.935     24.9459  25.1431     0.0   54.2578
26265  26211.0  1247.335     24.9580  25.1552     0.0   54.2672
26275  26221.0  1247.735     24.9715  25.1687     0.0   54.2918
26285  26231.0  1248.135     24.9846  25.1818     0.0   54.3022
26295  26241.0  1248.535     24.9983  25.1956     0.0   54.2942
26305  26251.0  1248.935     25.0107  25.2080     0.0   54.3005
26315  26261.0  1249.335     25.0242  25.2214     0.0   54.2934
26325  26271.0  1249.735     25.0374  25.2347     0.0   54.3114
26335  26281.0  1250.135     25.0523  25.2495     0.0   54.3268
26345  26291.0  1250.535     25.0637  25.2609     0.0   54.3283
26355  26301.0  1250.935     25.0786  25.2758     0.0   54.3227
26365  26311.0  1251.335     25.0919  25.2891     0.0   54.3492
26375  26321.0  1251.735     25.1054  25.3026     0.0   54.3415
26385  26331.0  1252.135     25.1176  25.3148     0.0   54.3220
26395  26341.0  1252.535     25.1308  25.3280     0.0   54.3349
26405  26351.0  1252.935     25.1450  25.3422     0.0   54.3522
26415  26361.0  1253.335     25.1574  25.3546     0.0   54.3434
26425  26371.0  1253.735     25.1711  25.3684     0.0   54.3469
26435  26381.0  1254.135     25.1838  25.3810     0.0   54.3431
26445  26391.0  1254.535     25.1985  25.3957     0.0   54.3682
26455  26401.0  1254.935     25.2111  25.4083     0.0   54.3513
26465  26411.0  1255.335     25.2239  25.4212     0.0   54.3402
26475  26421.0  1255.735     25.2383  25.4356     0.0   54.3605
26485  26431.0  1256.135     25.2510  25.4482     0.0   54.3488
26495  26441.0  1256.535     25.2650  25.4622     0.0   54.3683
26505  26451.0  1256.935     25.2771  25.4743     0.0   54.3546
26515  26461.0  1257.335     25.2920  25.4892     0.0   54.3742
26525  26471.0  1257.735     25.3032  25.5005     0.0   54.3753
26535  26481.0  1258.135     25.3186  25.5158     0.0   54.3899
26545  26491.0  1258.535     25.3309  25.5281     0.0   54.3913
26555  26501.0  1258.935     25.3448  25.5421     0.0   54.4047
26565  26511.0  1259.335     25.3583  25.5555     0.0   54.4018
26575  26521.0  1259.735     25.3715  25.5687     0.0   54.3781
26585  26531.0  1260.135     25.3843  25.5815     0.0   54.4038
26595  26541.0  1260.535     25.3975  25.5947     0.0   54.4268
26605  26551.0  1260.935     25.4111  25.6084     0.0   54.4169
26615  26561.0  1261.335     25.4250  25.6222     0.0   54.4081
26625  26571.0  1261.735     25.4380  25.6353     0.0   54.3961
26636  26581.0  1262.135     25.4290  25.6262     0.0   54.0344
26646  26591.0  1262.535     25.4020  25.5993     0.0   53.3914
26656  26601.0  1262.935     25.3759  25.5732     0.0   52.8265
26666  26611.0  1263.335     25.3493  25.5466     0.0   52.2948
26676  26621.0  1263.735     25.3228  25.5200     0.0   51.7565
26686  26631.0  1264.135     25.2972  25.4944     0.0   51.2155
26696  26641.0  1264.535     25.2693  25.4665     0.0   50.6925
26706  26651.0  1264.935     25.2414  25.4386     0.0   50.1697
26716  26661.0  1265.335     25.2158  25.4130     0.0   49.6704
26726  26671.0  1265.735     25.1895  25.3868     0.0   49.1448
26736  26681.0  1266.135     25.1619  25.3591     0.0   48.7082
26746  26691.0  1266.535     25.1363  25.3336     0.0   48.1752
26756  26701.0  1266.935     25.1090  25.3062     0.0   47.7079
26766  26711.0  1267.335     25.0822  25.2794     0.0   47.2603
26776  26721.0  1267.735     25.0560  25.2533     0.0   46.7453
26786  26731.0  1268.135     25.0288  25.2260     0.0   46.2387
26796  26741.0  1268.535     25.0035  25.2007     0.0   45.7838
26806  26751.0  1268.935     24.9748  25.1720     0.0   45.2986
26816  26761.0  1269.335     24.9486  25.1459     0.0   44.8784
26826  26771.0  1269.735     24.9220  25.1192     0.0   44.4144
26836  26781.0  1270.135     24.8956  25.0928     0.0   43.9609
26846  26791.0  1270.535     24.8691  25.0663     0.0   43.5020
26856  26801.0  1270.935     24.8427  25.0399     0.0   43.0530
26866  26811.0  1271.335     24.8165  25.0137     0.0   42.6210
26876  26821.0  1271.735     24.7897  24.9869     0.0   42.1663
26886  26831.0  1272.135     24.7625  24.9597     0.0   41.7247
26896  26841.0  1272.535     24.7364  24.9337     0.0   41.3123
26906  26851.0  1272.935     24.7092  24.9065     0.0   40.8510
26916  26861.0  1273.335     24.6829  24.8801     0.0   40.4197
26926  26871.0  1273.735     24.6563  24.8536     0.0   39.9873
26936  26881.0  1274.135     24.6300  24.8272     0.0   39.5671
26946  26891.0  1274.535     24.6021  24.7994     0.0   39.1379
26956  26901.0  1274.935     24.5763  24.7736     0.0   38.7548
26966  26911.0  1275.335     24.5497  24.7470     0.0   38.3086
26976  26921.0  1275.735     24.5225  24.7198     0.0   37.8967
26986  26931.0  1276.135     24.4947  24.6919     0.0   37.4893