           Num   Time(s)  PosAbs(mm)  Pos(mm)  Pos(%)  Load(kN)
0          1.0     0.005      0.7106  -0.0009     0.0    0.0844
10        11.0     2.005      0.7765   0.0651     0.0    0.1133
20        21.0     4.005      0.8430   0.1316     0.0    0.1342
30        31.0     6.005      0.9098   0.1983     0.0    0.1560
40        41.0     8.005      0.9767   0.2652     0.0    0.1807
50        51.0    10.005      1.0431   0.3317     0.0    0.2041
60        61.0    12.005      1.1100   0.3985     0.0    0.2283
70        71.0    14.005      1.1766   0.4652     0.0    0.2548
80        81.0    16.005      1.2431   0.5317     0.0    0.2825
90        91.0    18.005      1.3100   0.5985     0.0    0.3123
100      101.0    20.005      1.3764   0.6650     0.0    0.3390
110      111.0    22.005      1.4431   0.7317     0.0    0.3723
120      121.0    24.005      1.5097   0.7983     0.0    0.4070
130      131.0    26.005      1.5764   0.8650     0.0    0.4433
140      141.0    28.005      1.6430   0.9316     0.0    0.4793
150      151.0    30.005      1.7096   0.9982     0.0    0.5193
160      161.0    32.005      1.7763   1.0649     0.0    0.5638
170      171.0    34.005      1.8431   1.1316     0.0    0.6069
180      181.0    36.005      1.9097   1.1983     0.0    0.6570
190      191.0    38.005      1.9763   1.2648     0.0    0.7059
200      201.0    40.005      2.0432   1.3318     0.0    0.7610
210      211.0    42.005      2.1098   1.3983     0.0    0.8175
220      221.0    44.005      2.1764   1.4650     0.0    0.8750
230      231.0    46.005      2.2431   1.5316     0.0    0.9407
240      241.0    48.005      2.3098   1.5983     0.0    1.0095
250      251.0    50.005      2.3765   1.6650     0.0    1.0793
260      261.0    52.005      2.4431   1.7317     0.0    1.1537
270      271.0    54.005      2.5099   1.7985     0.0    1.2315
280      281.0    56.005      2.5764   1.8650     0.0    1.3128
290      291.0    58.005      2.6434   1.9319     0.0    1.4035
300      301.0    60.005      2.7099   1.9984     0.0    1.4952
310      311.0    62.005      2.7764   2.0650     0.0    1.5912
320      321.0    64.005      2.8434   2.1319     0.0    1.6960
330      331.0    66.005      2.9099   2.1984     0.0    1.8018
340      341.0    68.005      2.9766   2.2651     0.0    1.9133
350      351.0    70.005      3.0431   2.3317     0.0    2.0335
360      361.0    72.005      3.1099   2.3985     0.0    2.1578
370      371.0    74.005      3.1763   2.4648     0.0    2.2854
380      381.0    76.005      3.2433   2.5318     0.0    2.4289
390      391.0    78.005      3.3099   2.5984     0.0    2.5690
400      401.0    80.005      3.3766   2.6652     0.0    2.7201
410      411.0    82.005      3.4430   2.7315     0.0    2.8432
420      421.0    84.005      3.5098   2.7984     0.0    2.8921
430      431.0    86.005      3.5765   2.8651     0.0    2.9513
440      441.0    88.005      3.6433   2.9318     0.0    3.0447
450      451.0    90.005      3.7098   2.9983     0.0    3.0656
460      461.0    92.005      3.7766   3.0652     0.0    3.0935
470      471.0    94.005      3.8433   3.1318     0.0    3.1091
480      481.0    96.005      3.9101   3.1987     0.0    3.1251
490      491.0    98.005      3.9767   3.2652     0.0    3.1493
500      501.0   100.005      4.0434   3.3319     0.0    3.1655
510      511.0   102.005      4.1100   3.3986     0.0    3.1815
520      521.0   104.005      4.1766   3.4652     0.0    3.2052
530      531.0   106.005      4.2431   3.5317     0.0    3.2252
540      541.0   108.005      4.3101   3.5986     0.0    3.2237
550      551.0   110.005      4.3763   3.6649     0.0    3.2270
560      561.0   112.005      4.4433   3.7319     0.0    3.2381
570      571.0   114.005      4.5098   3.7984     0.0    3.2482
580      581.0   116.005      4.5766   3.8652     0.0    3.2490
590      591.0   118.005      4.6432   3.9318     0.0    3.2696
600      601.0   120.005      4.7102   3.9987     0.0    3.2938
610      611.0   122.005      4.7767   4.0653     0.0    3.3075
620      621.0   124.005      4.8433   4.1319     0.0    3.3061
630      631.0   126.005      4.9098   4.1984     0.0    3.3162
640      641.0   128.005      4.9767   4.2653     0.0    3.3235
650      651.0   130.005      5.0435   4.3321     0.0    3.3322
660      661.0   132.005      5.1100   4.3985     0.0    3.3447
670      671.0   134.005      5.1770   4.4655     0.0    3.3564
680      681.0   136.005      5.2433   4.5318     0.0    3.3528
690      691.0   138.005      5.3097   4.5983     0.0    3.3608
700      701.0   140.005      5.3765   4.6651     0.0    3.3639
710      711.0   142.005      5.4435   4.7321     0.0    3.3705
720      721.0   144.005      5.5100   4.7986     0.0    3.3653
730      731.0   146.005      5.5767   4.8653     0.0    3.3670
740      741.0   148.005      5.6430   4.9316     0.0    3.3751
750      751.0   150.005      5.7101   4.9987     0.0    3.3893
760      761.0   152.005      5.7764   5.0650     0.0    3.4025
770      771.0   154.005      5.8429   5.1315     0.0    3.4078
780      781.0   156.005      5.9098   5.1983     0.0    3.4134
790      791.0   158.005      5.9766   5.2651     0.0    3.4304
800      801.0   160.005      6.0435   5.3321     0.0    3.5206
810      811.0   162.005      6.1102   5.3987     0.0    3.5779
820      821.0   164.005      6.1769   5.4655     0.0    3.7282
830      831.0   166.005      6.2434   5.5319     0.0    3.8351
840      841.0   168.005      6.3101   5.5987     0.0    3.8802
850      851.0   170.005      6.3765   5.6651     0.0    4.0813
860      861.0   172.005      6.4432   5.7318     0.0    4.3606
870      871.0   174.005      6.5101   5.7986     0.0    4.6156
880      881.0   176.005      6.5766   5.8652     0.0    4.8274
890      891.0   178.005      6.6435   5.9320     0.0    5.0189
900      901.0   180.005      6.7101   5.9986     0.0    5.1984
910      911.0   182.005      6.7763   6.0649     0.0    5.3427
920      921.0   184.005      6.8432   6.1318     0.0    5.4954
930      931.0   186.005      6.9096   6.1982     0.0    5.6983
940      941.0   188.005      6.9765   6.2650     0.0    5.8761
950      951.0   190.005      7.0437   6.3323     0.0    6.0313
960      961.0   192.005      7.1098   6.3984     0.0    6.1887
970      971.0   194.005      7.1770   6.4656     0.0    6.3822
980      981.0   196.005      7.2431   6.5317     0.0    6.5747
990      991.0   198.005      7.3103   6.5989     0.0    6.7869
1000    1001.0   200.005      7.3767   6.6653     0.0    7.0136
1010    1011.0   202.005      7.4439   6.7324     0.0    7.2484
1020    1021.0   204.005      7.5102   6.7988     0.0    7.6531
1030    1031.0   206.005      7.5767   6.8652     0.0    8.0244
1040    1041.0   208.005      7.6431   6.9317     0.0    8.4058
1050    1051.0   210.005      7.7101   6.9986     0.0    8.8019
1060    1061.0   212.005      7.7767   7.0652     0.0    9.1918
1070    1071.0   214.005      7.8433   7.1318     0.0    9.6023
1080    1081.0   216.005      7.9100   7.1985     0.0   10.0346
1090    1091.0   218.005      7.9766   7.2651     0.0   10.5137
1100    1101.0   220.005      8.0439   7.3325     0.0   10.9954
1110    1111.0   222.005      8.1099   7.3985     0.0   11.5037
1120    1121.0   224.005      8.1767   7.4652     0.0   12.0547
1130    1131.0   226.005      8.2433   7.5319     0.0   12.6311
1140    1141.0   228.005      8.3100   7.5986     0.0   13.2187
1150    1151.0   230.005      8.3769   7.6655     0.0   13.8351
1160    1161.0   232.005      8.4438   7.7323     0.0   14.4872
1176    1171.0   233.710      8.4804   7.7690     0.0   14.6503
1186    1181.0   234.110      8.4807   7.7692     0.0   14.5936
1196    1191.0   234.510      8.4803   7.7689     0.0   14.5277
1206    1201.0   234.910      8.4802   7.7687     0.0   14.4799
1216    1211.0   235.310      8.4800   7.7686     0.0   14.4358
1226    1221.0   235.710      8.4802   7.7687     0.0   14.3834
1236    1231.0   236.110      8.4805   7.7691     0.0   14.3434
1246    1241.0   236.510      8.4805   7.7691     0.0   14.2986
1256    1251.0   236.910      8.4803   7.7689     0.0   14.2623
1266    1261.0   237.310      8.4806   7.7692     0.0   14.2434
1276    1271.0   237.710      8.4801   7.7687     0.0   14.2135
1286    1281.0   238.110      8.4802   7.7688     0.0   14.1828
1296    1291.0   238.510      8.4804   7.7689     0.0   14.1575
1306    1301.0   238.910      8.4803   7.7689     0.0   14.1293
1316    1311.0   239.310      8.4800   7.7686     0.0   14.1006
1326    1321.0   239.710      8.4803   7.7688     0.0   14.0891
1336    1331.0   240.110      8.4802   7.7687     0.0   14.0598
1346    1341.0   240.510      8.4807   7.7692     0.0   14.0307
1356    1351.0   240.910      8.4809   7.7695     0.0   14.0054
1366    1361.0   241.310      8.4802   7.7687     0.0   13.9768
1376    1371.0   241.710      8.4806   7.7691     0.0   13.9640
1386    1381.0   242.110      8.4804   7.7690     0.0   13.9590
1396    1391.0   242.510      8.4804   7.7690     0.0   13.9340
1406    1401.0   242.910      8.4806   7.7692     0.0   13.9070
1417    1411.0   243.310      8.4804   7.7690     0.0   13.8870
1427    1421.0   243.710      8.4805   7.7690     0.0   13.8672
1437    1431.0   244.110      8.4803   7.7689     0.0   13.8625
1447    1441.0   244.510      8.4803   7.7689     0.0   13.8386
1457    1451.0   244.910      8.4803   7.7688     0.0   13.8296
1467    1461.0   245.310      8.4803   7.7689     0.0   13.8059
1477    1471.0   245.710      8.4802   7.7688     0.0   13.7855
1487    1481.0   246.110      8.4803   7.7689     0.0   13.7854
1497    1491.0   246.510      8.4805   7.7691     0.0   13.7631
1507    1501.0   246.910      8.4802   7.7687     0.0   13.7582
1517    1511.0   247.310      8.4803   7.7689     0.0   13.7390
1527    1521.0   247.710      8.4798   7.7684     0.0   13.7155
1537    1531.0   248.110      8.4809   7.7694     0.0   13.7185
1547    1541.0   248.510      8.4807   7.7693     0.0   13.7039
1557    1551.0   248.910      8.4804   7.7689     0.0   13.6871
1567    1561.0   249.310      8.4807   7.7693     0.0   13.6648
1577    1571.0   249.710      8.4803   7.7688     0.0   13.6572
1587    1581.0   250.110      8.4803   7.7689     0.0   13.6515
1597    1591.0   250.510      8.4801   7.7687     0.0   13.6353
1607    1601.0   250.910      8.4800   7.7686     0.0   13.6215
1617    1611.0   251.310      8.4801   7.7687     0.0   13.6113
1627    1621.0   251.710      8.4803   7.7689     0.0   13.6044
1637    1631.0   252.110      8.4801   7.7687     0.0   13.6241
1647    1641.0   252.510      8.4811   7.7697     0.0   13.6026
1657    1651.0   252.910      8.4800   7.7685     0.0   13.5730
1667    1661.0   253.310      8.4800   7.7686     0.0   13.5654
1677    1671.0   253.710      8.4812   7.7698     0.0   13.5586
1687    1681.0   254.110      8.4803   7.7688     0.0   13.5694
1697    1691.0   254.510      8.4809   7.7695     0.0   13.5523
1707    1701.0   254.910      8.4803   7.7689     0.0   13.5396
1717    1711.0   255.310      8.4807   7.7692     0.0   13.5442
1727    1721.0   255.710      8.4802   7.7688     0.0   13.5191
1737    1731.0   256.110      8.4802   7.7688     0.0   13.5007
1747    1741.0   256.510      8.4804   7.7690     0.0   13.5000
1757    1751.0   256.910      8.4805   7.7691     0.0   13.4930
1767    1761.0   257.310      8.4803   7.7689     0.0   13.4925
1777    1771.0   257.710      8.4803   7.7688     0.0   13.4614
1787    1781.0   258.110      8.4805   7.7690     0.0   13.4686
1797    1791.0   258.510      8.4805   7.7691     0.0   13.4619
1807    1801.0   258.910      8.4805   7.7691     0.0   13.4472
1817    1811.0   259.310      8.4805   7.7690     0.0   13.4340
1827    1821.0   259.710      8.4806   7.7692     0.0   13.4384
1837    1831.0   260.110      8.4805   7.7691     0.0   13.4166
1847    1841.0   260.510      8.4805   7.7691     0.0   13.4300
1857    1851.0   260.910      8.4801   7.7687     0.0   13.4305
1867    1861.0   261.310      8.4806   7.7692     0.0   13.3981
1877    1871.0   261.710      8.4801   7.7686     0.0   13.3477
1887    1881.0   262.110      8.4806   7.7692     0.0   13.3427
1897    1891.0   262.510      8.4803   7.7688     0.0   13.3407
1907    1901.0   262.910      8.4800   7.7686     0.0   13.3242
1917    1911.0   263.310      8.4804   7.7690     0.0   13.3305
1927    1921.0   263.710      8.4803   7.7689     0.0   13.3346
1937    1931.0   264.110      8.4803   7.7688     0.0   13.3162
1947    1941.0   264.510      8.4806   7.7691     0.0   13.3137
1957    1951.0   264.910      8.4805   7.7690     0.0   13.3021
1967    1961.0   265.310      8.4801   7.7687     0.0   13.2985
1977    1971.0   265.710      8.4806   7.7691     0.0   13.2906
1987    1981.0   266.110      8.4803   7.7689     0.0   13.2813
1997    1991.0   266.510      8.4804   7.7689     0.0   13.2677
2007    2001.0   266.910      8.4804   7.7690     0.0   13.2688
2017    2011.0   267.310      8.4800   7.7686     0.0   13.2665
2027    2021.0   267.710      8.4802   7.7688     0.0   13.2490
2037    2031.0   268.110      8.4805   7.7690     0.0   13.2480
2047    2041.0   268.510      8.4803   7.7688     0.0   13.2440
2057    2051.0   268.910      8.4804   7.7690     0.0   13.2477
2067    2061.0   269.310      8.4802   7.7688     0.0   13.2273
2077    2071.0   269.710      8.4804   7.7689     0.0   13.2230
2087    2081.0   270.110      8.4802   7.7687     0.0   13.2070
2097    2091.0   270.510      8.4806   7.7692     0.0   13.2176
2107    2101.0   270.910      8.4802   7.7688     0.0   13.2038
2117    2111.0   271.310      8.4803   7.7688     0.0   13.1984
2127    2121.0   271.710      8.4806   7.7692     0.0   13.1953
2137    2131.0   272.110      8.4806   7.7691     0.0   13.1996
2147    2141.0   272.510      8.4802   7.7687     0.0   13.1927
2157    2151.0   272.910      8.4806   7.7692     0.0   13.1892
2167    2161.0   273.310      8.4803   7.7689     0.0   13.1829
2177    2171.0   273.710      8.4803   7.7689     0.0   13.1835
2187    2181.0   274.110      8.4804   7.7690     0.0   13.1677
2197    2191.0   274.510      8.4805   7.7691     0.0   13.1691
2207    2201.0   274.910      8.4800   7.7686     0.0   13.1586
2217    2211.0   275.310      8.4801   7.7687     0.0   13.1559
2227    2221.0   275.710      8.4801   7.7686     0.0   13.1578
2237    2231.0   276.110      8.4805   7.7691     0.0   13.1550
2247    2241.0   276.510      8.4805   7.7691     0.0   13.1426
2257    2251.0   276.910      8.4801   7.7687     0.0   13.1434
2267    2261.0   277.310      8.4806   7.7692     0.0   13.1354
2277    2271.0   277.710      8.4799   7.7685     0.0   13.1083
2287    2281.0   278.110      8.4802   7.7687     0.0   13.1131
2297    2291.0   278.510      8.4805   7.7690     0.0   13.1089
2307    2301.0   278.910      8.4805   7.7690     0.0   13.1019
2317    2311.0   279.310      8.4802   7.7688     0.0   13.0937
2327    2321.0   279.710      8.4801   7.7687     0.0   13.0945
2337    2331.0   280.110      8.4806   7.7692     0.0   13.0925
2347    2341.0   280.510      8.4809   7.7694     0.0   13.0964
2357    2351.0   280.910      8.4806   7.7691     0.0   13.0750
2367    2361.0   281.310      8.4802   7.7687     0.0   13.0675
2377    2371.0   281.710      8.4803   7.7688     0.0   13.0736
2387    2381.0   282.110      8.4805   7.7690     0.0   13.0627
2397    2391.0   282.510      8.4806   7.7692     0.0   13.0534
2407    2401.0   282.910      8.4805   7.7690     0.0   13.0530
2417    2411.0   283.310      8.4803   7.7688     0.0   13.0544
2427    2421.0   283.710      8.4801   7.7687     0.0   13.0488
2437    2431.0   284.110      8.4801   7.7687     0.0   13.0384
2447    2441.0   284.510      8.4806   7.7691     0.0   13.0247
2457    2451.0   284.910      8.4809   7.7695     0.0   13.0295
2467    2461.0   285.310      8.4808   7.7693     0.0   13.0281
2477    2471.0   285.710      8.4799   7.7685     0.0   13.0266
2487    2481.0   286.110      8.4803   7.7689     0.0   13.0247
2497    2491.0   286.510      8.4806   7.7692     0.0   13.0246
2507    2501.0   286.910      8.4803   7.7689     0.0   13.0059
2517    2511.0   287.310      8.4800   7.7686     0.0   13.0011
2527    2521.0   287.710      8.4807   7.7693     0.0   12.9925
2537    2531.0   288.110      8.4804   7.7690     0.0   12.9964
2547    2541.0   288.510      8.4799   7.7684     0.0   12.9818
2557    2551.0   288.910      8.4801   7.7687     0.0   12.9884
2567    2561.0   289.310      8.4805   7.7691     0.0   12.9805
2577    2571.0   289.710      8.4802   7.7687     0.0   12.9819
2587    2581.0   290.110      8.4806   7.7691     0.0   12.9687
2597    2591.0   290.510      8.4804   7.7690     0.0   12.9684
2607    2601.0   290.910      8.4802   7.7688     0.0   12.9627
2617    2611.0   291.310      8.4803   7.7688     0.0   12.9690
2627    2621.0   291.710      8.4807   7.7692     0.0   12.9634
2637    2631.0   292.110      8.4804   7.7689     0.0   12.9591
2647    2641.0   292.510      8.4804   7.7689     0.0   12.9630
2657    2651.0   292.910      8.4801   7.7686     0.0   12.9604
2667    2661.0   293.310      8.4805   7.7691     0.0   12.9511
2677    2671.0   293.710      8.4801   7.7686     0.0   12.9497
2694    2681.0   294.220      8.4822   7.7707     0.0   12.9656
2704    2691.0   294.620      8.4961   7.7847     0.0   13.2707
2714    2701.0   295.020      8.5094   7.7980     0.0   13.5214
2724    2711.0   295.420      8.5227   7.8113     0.0   13.7729
2734    2721.0   295.820      8.5359   7.8244     0.0   14.0082
2744    2731.0   296.220      8.5493   7.8379     0.0   14.2426
2754    2741.0   296.620      8.5627   7.8513     0.0   14.4764
2764    2751.0   297.020      8.5761   7.8647     0.0   14.6914
2774    2761.0   297.420      8.5894   7.8780     0.0   14.9100
2784    2771.0   297.820      8.6027   7.8913     0.0   15.1043
2794    2781.0   298.220      8.6161   7.9047     0.0   15.3075
2804    2791.0   298.620      8.6289   7.9175     0.0   15.5148
2814    2801.0   299.020      8.6426   7.9311     0.0   15.7085
2824    2811.0   299.420      8.6557   7.9443     0.0   15.8812
2834    2821.0   299.820      8.6687   7.9572     0.0   16.0706
2844    2831.0   300.220      8.6825   7.9711     0.0   16.2593
2854    2841.0   300.620      8.6960   7.9845     0.0   16.4390
2864    2851.0   301.020      8.7091   7.9977     0.0   16.6202
2874    2861.0   301.420      8.7222   8.0108     0.0   16.7958
2884    2871.0   301.820      8.7357   8.0243     0.0   16.9710
2894    2881.0   302.220      8.7494   8.0379     0.0   17.1565
2904    2891.0   302.620      8.7623   8.0508     0.0   17.3167
2914    2901.0   303.020      8.7761   8.0646     0.0   17.4943
2924    2911.0   303.420      8.7896   8.0781     0.0   17.6644
2934    2921.0   303.820      8.8026   8.0912     0.0   17.8432
2944    2931.0   304.220      8.8159   8.1045     0.0   18.0035
2954    2941.0   304.620      8.8292   8.1178     0.0   18.1668
2964    2951.0   305.020      8.8427   8.1313     0.0   18.3225
2974    2961.0   305.420      8.8555   8.1441     0.0   18.4928
2984    2971.0   305.820      8.8696   8.1582     0.0   18.6837
2994    2981.0   306.220      8.8820   8.1706     0.0   18.8330
3004    2991.0   306.620      8.8960   8.1846     0.0   19.0063
3014    3001.0   307.020      8.9093   8.1979     0.0   19.1841
3024    3011.0   307.420      8.9226   8.2112     0.0   19.3283
3034    3021.0   307.820      8.9362   8.2247     0.0   19.5039
3044    3031.0   308.220      8.9494   8.2379     0.0   19.6528
3054    3041.0   308.620      8.9631   8.2516     0.0   19.8288
3064    3051.0   309.020      8.9755   8.2641     0.0   19.9757
3074    3061.0   309.420      8.9894   8.2779     0.0   20.1504
3084    3071.0   309.820      9.0020   8.2905     0.0   20.3074
3094    3081.0   310.220      9.0160   8.3046     0.0   20.4803
3104    3091.0   310.620      9.0292   8.3178     0.0   20.6244
3114    3101.0   311.020      9.0428   8.3313     0.0   20.7894
3124    3111.0   311.420      9.0561   8.3447     0.0   20.9507
3134    3121.0   311.820      9.0691   8.3576     0.0   21.1032
3144    3131.0   312.220      9.0826   8.3712     0.0   21.2581
3154    3141.0   312.620      9.0955   8.3841     0.0   21.4135
3164    3151.0   313.020      9.1092   8.3978     0.0   21.5826
3174    3161.0   313.420      9.1225   8.4110     0.0   21.7395
3184    3171.0   313.820      9.1354   8.4240     0.0   21.8846
3194    3181.0   314.220      9.1491   8.4377     0.0   22.0536
3204    3191.0   314.620      9.1623   8.4509     0.0   22.2068
3214    3201.0   315.020      9.1764   8.4650     0.0   22.3573
3224    3211.0   315.420      9.1891   8.4777     0.0   22.4986
3234    3221.0   315.820      9.2021   8.4906     0.0   22.6498
3244    3231.0   316.220      9.2156   8.5041     0.0   22.7965
3254    3241.0   316.620      9.2286   8.5172     0.0   22.9238
3264    3251.0   317.020      9.2423   8.5309     0.0   23.0958
3274    3261.0   317.420      9.2553   8.5439     0.0   23.2228
3284    3271.0   317.820      9.2690   8.5575     0.0   23.3630
3294    3281.0   318.220      9.2823   8.5708     0.0   23.4935
3304    3291.0   318.620      9.2959   8.5845     0.0   23.6584
3314    3301.0   319.020      9.3088   8.5974     0.0   23.7832
3324    3311.0   319.420      9.3222   8.6107     0.0   23.9331
3334    3321.0   319.820      9.3358   8.6244     0.0   24.0851
3344    3331.0   320.220      9.3491   8.6377     0.0   24.2319
3354    3341.0   320.620      9.3623   8.6509     0.0   24.3910
3364    3351.0   321.020      9.3757   8.6642     0.0   24.5242
3374    3361.0   321.420      9.3889   8.6774     0.0   24.6810
3384    3371.0   321.820      9.4023   8.6909     0.0   24.8337
3394    3381.0   322.220      9.4157   8.7042     0.0   24.9812
3410    3391.0   322.620      9.4024   8.6910     0.0   24.5170
3420    3401.0   323.020      9.4033   8.6919     0.0   24.4265
3430    3411.0   323.420      9.4029   8.6915     0.0   24.3818
3440    3421.0   323.820      9.4024   8.6910     0.0   24.2973
3450    3431.0   324.220      9.4025   8.6911     0.0   24.2389
3460    3441.0   324.620      9.4028   8.6914     0.0   24.1872
3470    3451.0   325.020      9.4025   8.6911     0.0   24.1282
3480    3461.0   325.420      9.4021   8.6906     0.0   24.0590
3490    3471.0   325.820      9.4019   8.6904     0.0   24.0225
3500    3481.0   326.220      9.4027   8.6913     0.0   23.9854
3510    3491.0   326.620      9.4023   8.6909     0.0   23.9333
3520    3501.0   327.020      9.4025   8.6911     0.0   23.8860
3530    3511.0   327.420      9.4026   8.6912     0.0   23.8565
3540    3521.0   327.820      9.4027   8.6912     0.0   23.8327
3550    3531.0   328.220      9.4026   8.6911     0.0   23.7859
3560    3541.0   328.620      9.4022   8.6907     0.0   23.7612
3570    3551.0   329.020      9.4027   8.6912     0.0   23.7361
3580    3561.0   329.420      9.4024   8.6910     0.0   23.6925
3590    3571.0   329.820      9.4019   8.6905     0.0   23.6637
3600    3581.0   330.220      9.4028   8.6914     0.0   23.6428
3610    3591.0   330.620      9.4023   8.6908     0.0   23.6047
3620    3601.0   331.020      9.4026   8.6911     0.0   23.5853
3630    3611.0   331.420      9.4022   8.6908     0.0   23.5524
3640    3621.0   331.820      9.4024   8.6910     0.0   23.5219
3650    3631.0   332.220      9.4026   8.6912     0.0   23.5060
3660    3641.0   332.620      9.4025   8.6911     0.0   23.4923
3670    3651.0   333.020      9.4028   8.6913     0.0   23.4599
3680    3661.0   333.420      9.4021   8.6906     0.0   23.4362
3690    3671.0   333.820      9.4020   8.6906     0.0   23.4018
3700    3681.0   334.220      9.4025   8.6911     0.0   23.3988
3710    3691.0   334.620      9.4029   8.6915     0.0   23.3678
3720    3701.0   335.020      9.4027   8.6913     0.0   23.3520
3730    3711.0   335.420      9.4024   8.6910     0.0   23.3254
3741    3721.0   335.820      9.4026   8.6912     0.0   23.3066
3751    3731.0   336.220      9.4023   8.6908     0.0   23.2908
3761    3741.0   336.620      9.4028   8.6913     0.0   23.2787
3771    3751.0   337.020      9.4025   8.6910     0.0   23.2581
3781    3761.0   337.420      9.4025   8.6911     0.0   23.2377
3791    3771.0   337.820      9.4023   8.6909     0.0   23.2282
3801    3781.0   338.220      9.4026   8.6911     0.0   23.2119
3811    3791.0   338.620      9.4023   8.6909     0.0   23.1854
3821    3801.0   339.020      9.4027   8.6913     0.0   23.1720
3831    3811.0   339.420      9.4021   8.6907     0.0   23.1655
3841    3821.0   339.820      9.4027   8.6913     0.0   23.1435
3851    3831.0   340.220      9.4025   8.6910     0.0   23.1321
3861    3841.0   340.620      9.4022   8.6907     0.0   23.1146
3871    3851.0   341.020      9.4031   8.6917     0.0   23.1095
3881    3861.0   341.420      9.4025   8.6910     0.0   23.0952
3891    3871.0   341.820      9.4024   8.6910     0.0   23.0755
3901    3881.0   342.220      9.4026   8.6911     0.0   23.0541
3911    3891.0   342.620      9.4027   8.6913     0.0   23.0398
3921    3901.0   343.020      9.4026   8.6912     0.0   23.0288
3931    3911.0   343.420      9.4023   8.6908     0.0   23.0225
3941    3921.0   343.820      9.4024   8.6910     0.0   23.0157
3951    3931.0   344.220      9.4028   8.6914     0.0   23.0121
3961    3941.0   344.620      9.4024   8.6909     0.0   22.9912
3971    3951.0   345.020      9.4023   8.6908     0.0   22.9832
3981    3961.0   345.420      9.4028   8.6913     0.0   22.9802
3991    3971.0   345.820      9.4022   8.6908     0.0   22.9474
4001    3981.0   346.220      9.4025   8.6911     0.0   22.9315
4011    3991.0   346.620      9.4026   8.6911     0.0   22.9100
4021    4001.0   347.020      9.4028   8.6914     0.0   22.9067
4031    4011.0   347.420      9.4024   8.6909     0.0   22.8852
4041    4021.0   347.820      9.4024   8.6910     0.0   22.8634
4051    4031.0   348.220      9.4023   8.6909     0.0   22.8616
4061    4041.0   348.620      9.4028   8.6914     0.0   22.8560
4071    4051.0   349.020      9.4029   8.6915     0.0   22.8547
4081    4061.0   349.420      9.4026   8.6912     0.0   22.8386
4091    4071.0   349.820      9.4027   8.6912     0.0   22.8404
4101    4081.0   350.220      9.4026   8.6912     0.0   22.8209
4111    4091.0   350.620      9.4026   8.6912     0.0   22.8026
4121    4101.0   351.020      9.4023   8.6909     0.0   22.7911
4131    4111.0   351.420      9.4030   8.6916     0.0   22.7679
4141    4121.0   351.820      9.4019   8.6905     0.0   22.7398
4151    4131.0   352.220      9.4027   8.6913     0.0   22.7462
4161    4141.0   352.620      9.4023   8.6909     0.0   22.7297
4171    4151.0   353.020      9.4025   8.6911     0.0   22.7464
4181    4161.0   353.420      9.4024   8.6909     0.0   22.7188
4191    4171.0   353.820      9.4026   8.6911     0.0   22.7088
4201    4181.0   354.220      9.4025   8.6911     0.0   22.7120
4211    4191.0   354.620      9.4022   8.6908     0.0   22.6850
4221    4201.0   355.020      9.4027   8.6912     0.0   22.6869
4231    4211.0   355.420      9.4024   8.6909     0.0   22.6806
4241    4221.0   355.820      9.4026   8.6912     0.0   22.6690
4251    4231.0   356.220      9.4022   8.6907     0.0   22.6566
4261    4241.0   356.620      9.4021   8.6907     0.0   22.6708
4271    4251.0   357.020      9.4022   8.6907     0.0   22.6563
4281    4261.0   357.420      9.4024   8.6909     0.0   22.6481
4291    4271.0   357.820      9.4022   8.6907     0.0   22.6435
4301    4281.0   358.220      9.4027   8.6913     0.0   22.6398
4311    4291.0   358.620      9.4021   8.6907     0.0   22.6332
4321    4301.0   359.020      9.4026   8.6912     0.0   22.6065
4331    4311.0   359.420      9.4026   8.6911     0.0   22.5892
4341    4321.0   359.820      9.4024   8.6910     0.0   22.5695
4351    4331.0   360.220      9.4026   8.6911     0.0   22.5692
4361    4341.0   360.620      9.4026   8.6912     0.0   22.5763
4371    4351.0   361.020      9.4025   8.6911     0.0   22.5606
4381    4361.0   361.420      9.4030   8.6916     0.0   22.5587
4391    4371.0   361.820      9.4024   8.6910     0.0   22.5377
4401    4381.0   362.220      9.4026   8.6911     0.0   22.5343
4411    4391.0   362.620      9.4023   8.6909     0.0   22.5254
4421    4401.0   363.020      9.4027   8.6913     0.0   22.5142
4431    4411.0   363.420      9.4023   8.6909     0.0   22.5139
4441    4421.0   363.820      9.4023   8.6909     0.0   22.4969
4451    4431.0   364.220      9.4029   8.6915     0.0   22.4931
4461    4441.0   364.620      9.4024   8.6910     0.0   22.4821
4471    4451.0   365.020      9.4023   8.6909     0.0   22.4793
4481    4461.0   365.420      9.4027   8.6913     0.0   22.4759
4491    4471.0   365.820      9.4027   8.6912     0.0   22.4501
4501    4481.0   366.220      9.4025   8.6911     0.0   22.4505
4511    4491.0   366.620      9.4021   8.6907     0.0   22.4421
4521    4501.0   367.020      9.4024   8.6910     0.0   22.4353
4531    4511.0   367.420      9.4026   8.6911     0.0   22.4250
4541    4521.0   367.820      9.4022   8.6907     0.0   22.4243
4551    4531.0   368.220      9.4023   8.6909     0.0   22.4084
4561    4541.0   368.620      9.4027   8.6913     0.0   22.3963
4571    4551.0   369.020      9.4023   8.6909     0.0   22.3983
4581    4561.0   369.420      9.4023   8.6909     0.0   22.3919
4591    4571.0   369.820      9.4024   8.6910     0.0   22.3880
4601    4581.0   370.220      9.4021   8.6907     0.0   22.3842
4611    4591.0   370.620      9.4024   8.6909     0.0   22.3798
4621    4601.0   371.020      9.4025   8.6911     0.0   22.3675
4631    4611.0   371.420      9.4025   8.6911     0.0   22.3530
4641    4621.0   371.820      9.4023   8.6908     0.0   22.3259
4651    4631.0   372.220      9.4026   8.6912     0.0   22.3052
4661    4641.0   372.620      9.4038   8.6923     0.0   22.3293
4671    4651.0   373.020      9.4025   8.6911     0.0   22.3179
4681    4661.0   373.420      9.4023   8.6909     0.0   22.3328
4691    4671.0   373.820      9.4024   8.6910     0.0   22.3186
4701    4681.0   374.220      9.4028   8.6913     0.0   22.3107
4711    4691.0   374.620      9.4025   8.6911     0.0   22.3209
4721    4701.0   375.020      9.4022   8.6908     0.0   22.3235
4731    4711.0   375.420      9.4024   8.6910     0.0   22.2972
4741    4721.0   375.820      9.4029   8.6915     0.0   22.3024
4751    4731.0   376.220      9.4029   8.6915     0.0   22.2901
4761    4741.0   376.620      9.4024   8.6910     0.0   22.2804
4771    4751.0   377.020      9.4024   8.6909     0.0   22.3000
4781    4761.0   377.420      9.4024   8.6909     0.0   22.2863
4791    4771.0   377.820      9.4027   8.6912     0.0   22.2630
4801    4781.0   378.220      9.4022   8.6907     0.0   22.2613
4811    4791.0   378.620      9.4034   8.6920     0.0   22.2712
4821    4801.0   379.020      9.4021   8.6906     0.0   22.2695
4831    4811.0   379.420      9.4028   8.6914     0.0   22.2557
4841    4821.0   379.820      9.4026   8.6912     0.0   22.2553
4851    4831.0   380.220      9.4026   8.6912     0.0   22.2808
4861    4841.0   380.620      9.4026   8.6912     0.0   22.2527
4871    4851.0   381.020      9.4030   8.6916     0.0   22.2387
4881    4861.0   381.420      9.4027   8.6913     0.0   22.2408
4891    4871.0   381.820      9.4030   8.6916     0.0   22.2434
4901    4881.0   382.220      9.4025   8.6911     0.0   22.2181
4911    4891.0   382.620      9.4024   8.6910     0.0   22.2145
4921    4901.0   383.020      9.4031   8.6917     0.0   22.2055
4931    4911.0   383.420      9.4023   8.6909     0.0   22.2234
4941    4921.0   383.820      9.4026   8.6912     0.0   22.2066
4951    4931.0   384.220      9.4025   8.6911     0.0   22.2017
4961    4941.0   384.620      9.4021   8.6907     0.0   22.2234
4971    4951.0   385.020      9.4025   8.6910     0.0   22.2063
4981    4961.0   385.420      9.4023   8.6909     0.0   22.1765
4991    4971.0   385.820      9.4024   8.6909     0.0   22.1734
5001    4981.0   386.220      9.4028   8.6913     0.0   22.1657
5011    4991.0   386.620      9.4022   8.6907     0.0   22.1618
5021    5001.0   387.020      9.4024   8.6910     0.0   22.1730
5031    5011.0   387.420      9.4024   8.6910     0.0   22.1531
5041    5021.0   387.820      9.4032   8.6918     0.0   22.1466
5051    5031.0   388.220      9.4027   8.6912     0.0   22.1444
5061    5041.0   388.620      9.4023   8.6908     0.0   22.1284
5071    5051.0   389.020      9.4023   8.6909     0.0   22.1091
5081    5061.0   389.420      9.4027   8.6913     0.0   22.1250
5091    5071.0   389.820      9.4024   8.6910     0.0   22.1147
5101    5081.0   390.220      9.4021   8.6906     0.0   22.1248
5111    5091.0   390.620      9.4024   8.6910     0.0   22.1240
5121    5101.0   391.020      9.4025   8.6911     0.0   22.1202
5131    5111.0   391.420      9.4028   8.6914     0.0   22.0993
5141    5121.0   391.820      9.4024   8.6910     0.0   22.0909
5151    5131.0   392.220      9.4024   8.6910     0.0   22.0975
5161    5141.0   392.620      9.4028   8.6914     0.0   22.0730
5171    5151.0   393.020      9.4026   8.6912     0.0   22.0650
5181    5161.0   393.420      9.4029   8.6914     0.0   22.0711
5191    5171.0   393.820      9.4025   8.6911     0.0   22.0604
5201    5181.0   394.220      9.4028   8.6914     0.0   22.0768
5211    5191.0   394.620      9.4023   8.6908     0.0   22.0561
5221    5201.0   395.020      9.4026   8.6912     0.0   22.0556
5231    5211.0   395.420      9.4024   8.6910     0.0   22.0512
5241    5221.0   395.820      9.4025   8.6910     0.0   22.0495
5251    5231.0   396.220      9.4022   8.6907     0.0   22.0422
5261    5241.0   396.620      9.4028   8.6914     0.0   22.0437
5271    5251.0   397.020      9.4028   8.6914     0.0   22.0203
5281    5261.0   397.420      9.4023   8.6909     0.0   22.0214
5291    5271.0   397.820      9.4031   8.6916     0.0   22.0239
5301    5281.0   398.220      9.4024   8.6909     0.0   22.0189
5311    5291.0   398.620      9.4022   8.6908     0.0   22.0104
5321    5301.0   399.020      9.4026   8.6911     0.0   22.0227
5331    5311.0   399.420      9.4025   8.6911     0.0   22.0140
5341    5321.0   399.820      9.4024   8.6910     0.0   22.0047
5351    5331.0   400.220      9.4027   8.6913     0.0   21.9943
5361    5341.0   400.620      9.4018   8.6904     0.0   21.9800
5371    5351.0   401.020      9.4029   8.6914     0.0   21.9736
5381    5361.0   401.420      9.4025   8.6910     0.0   21.9776
5391    5371.0   401.820      9.4026   8.6911     0.0   21.9806
5401    5381.0   402.220      9.4028   8.6914     0.0   21.9771
5411    5391.0   402.620      9.4026   8.6912     0.0   21.9635
5421    5401.0   403.020      9.4026   8.6911     0.0   21.9541
5431    5411.0   403.420      9.4026   8.6911     0.0   21.9577
5441    5421.0   403.820      9.4025   8.6910     0.0   21.9354
5451    5431.0   404.220      9.4024   8.6909     0.0   21.9254
5461    5441.0   404.620      9.4025   8.6910     0.0   21.9353
5471    5451.0   405.020      9.4019   8.6905     0.0   21.9110
5481    5461.0   405.420      9.4028   8.6914     0.0   21.9144
5491    5471.0   405.820      9.4025   8.6910     0.0   21.9104
5501    5481.0   406.220      9.4027   8.6913     0.0   21.9067
5511    5491.0   406.620      9.4030   8.6915     0.0   21.8885
5521    5501.0   407.020      9.4024   8.6909     0.0   21.9004
5531    5511.0   407.420      9.4032   8.6917     0.0   21.8848
5541    5521.0   407.820      9.4030   8.6916     0.0   21.8933
5551    5531.0   408.220      9.4021   8.6906     0.0   21.8787
5561    5541.0   408.620      9.4024   8.6909     0.0   21.9014
5571    5551.0   409.020      9.4027   8.6913     0.0   21.8998
5581    5561.0   409.420      9.4026   8.6912     0.0   21.9047
5591    5571.0   409.820      9.4025   8.6911     0.0   21.8986
5601    5581.0   410.220      9.4030   8.6915     0.0   21.9059
5611    5591.0   410.620      9.4027   8.6912     0.0   21.9199
5621    5601.0   411.020      9.4027   8.6912     0.0   21.8896
5631    5611.0   411.420      9.4028   8.6914     0.0   21.8897
5641    5621.0   411.820      9.4027   8.6913     0.0   21.8917
5651    5631.0   412.220      9.4029   8.6915     0.0   21.9106
5661    5641.0   412.620      9.4027   8.6913     0.0   21.8914
5671    5651.0   413.020      9.4029   8.6915     0.0   21.8657
5681    5661.0   413.420      9.4028   8.6914     0.0   21.8789
5691    5671.0   413.820      9.4025   8.6911     0.0   21.8765
5701    5681.0   414.220      9.4028   8.6913     0.0   21.8545
5711    5691.0   414.620      9.4028   8.6913     0.0   21.8572
5721    5701.0   415.020      9.4023   8.6909     0.0   21.8424
5731    5711.0   415.420      9.4022   8.6907     0.0   21.8599
5741    5721.0   415.820      9.4027   8.6913     0.0   21.8412
5751    5731.0   416.220      9.4024   8.6910     0.0   21.8263
5761    5741.0   416.620      9.4032   8.6918     0.0   21.8259
5771    5751.0   417.020      9.4024   8.6910     0.0   21.8310
5781    5761.0   417.420      9.4025   8.6911     0.0   21.8424
5791    5771.0   417.820      9.4027   8.6913     0.0   21.8140
5801    5781.0   418.220      9.4023   8.6908     0.0   21.8013
5811    5791.0   418.620      9.4027   8.6913     0.0   21.8113
5821    5801.0   419.020      9.4030   8.6916     0.0   21.8112
5831    5811.0   419.420      9.4025   8.6910     0.0   21.8123
5841    5821.0   419.820      9.4028   8.6914     0.0   21.8040
5851    5831.0   420.220      9.4031   8.6916     0.0   21.7905
5861    5841.0   420.620      9.4025   8.6911     0.0   21.8044
5871    5851.0   421.020      9.4030   8.6916     0.0   21.7949
5881    5861.0   421.420      9.4027   8.6912     0.0   21.7818
5891    5871.0   421.820      9.4020   8.6905     0.0   21.7715
5901    5881.0   422.220      9.4024   8.6910     0.0   21.7868
5911    5891.0   422.620      9.4026   8.6912     0.0   21.7725
5921    5901.0   423.020      9.4023   8.6909     0.0   21.7914
5931    5911.0   423.420      9.4024   8.6910     0.0   21.7910
5941    5921.0   423.820      9.4027   8.6912     0.0   21.7667
5951    5931.0   424.220      9.4024   8.6909     0.0   21.7574
5961    5941.0   424.620      9.4029   8.6915     0.0   21.7523
5971    5951.0   425.020      9.4023   8.6909     0.0   21.7485
5981    5961.0   425.420      9.4029   8.6915     0.0   21.7496
5991    5971.0   425.820      9.4023   8.6908     0.0   21.7496
6001    5981.0   426.220      9.4029   8.6914     0.0   21.7534
6011    5991.0   426.620      9.4023   8.6909     0.0   21.7504
6021    6001.0   427.020      9.4027   8.6913     0.0   21.7468
6031    6011.0   427.420      9.4026   8.6911     0.0   21.7380
6041    6021.0   427.820      9.4031   8.6917     0.0   21.7411
6051    6031.0   428.220      9.4021   8.6906     0.0   21.7325
6061    6041.0   428.620      9.4028   8.6914     0.0   21.7120
6071    6051.0   429.020      9.4028   8.6913     0.0   21.7304
6081    6061.0   429.420      9.4024   8.6910     0.0   21.7185
6091    6071.0   429.820      9.4028   8.6914     0.0   21.7141
6101    6081.0   430.220      9.4029   8.6915     0.0   21.7137
6111    6091.0   430.620      9.4024   8.6910     0.0   21.7036
6121    6101.0   431.020      9.4029   8.6915     0.0   21.6886
6131    6111.0   431.420      9.4028   8.6914     0.0   21.7099
6141    6121.0   431.820      9.4031   8.6916     0.0   21.7036
6151    6131.0   432.220      9.4028   8.6914     0.0   21.6997
6161    6141.0   432.620      9.4028   8.6914     0.0   21.6895
6171    6151.0   433.020      9.4027   8.6912     0.0   21.6769
6181    6161.0   433.420      9.4024   8.6910     0.0   21.6787
6191    6171.0   433.820      9.4028   8.6913     0.0   21.6758
6208    6181.0   434.265      9.4031   8.6916     0.0   21.6830
6218    6191.0   434.665      9.4157   8.7042     0.0   22.0471
6228    6201.0   435.065      9.4293   8.7179     0.0   22.3656
6238    6211.0   435.465      9.4420   8.7305     0.0   22.6766
6248    6221.0   435.865      9.4557   8.7443     0.0   23.0066
6258    6231.0   436.265      9.4691   8.7576     0.0   23.3086
6268    6241.0   436.665      9.4823   8.7709     0.0   23.6190
6278    6251.0   437.065      9.4955   8.7841     0.0   23.8980
6288    6261.0   437.465      9.5091   8.7977     0.0   24.1680
6298    6271.0   437.865      9.5223   8.8109     0.0   24.4416
6308    6281.0   438.265      9.5359   8.8245     0.0   24.7230
6318    6291.0   438.665      9.5489   8.8375     0.0   24.9733
6328    6301.0   439.065      9.5623   8.8508     0.0   25.2428
6338    6311.0   439.465      9.5755   8.8640     0.0   25.4989
6348    6321.0   439.865      9.5888   8.8774     0.0   25.7271
6358    6331.0   440.265      9.6025   8.8911     0.0   25.9564
6368    6341.0   440.665      9.6150   8.9036     0.0   26.1754
6378    6351.0   441.065      9.6289   8.9175     0.0   26.4017
6388    6361.0   441.465      9.6421   8.9307     0.0   26.6253
6398    6371.0   441.865      9.6558   8.9444     0.0   26.8315
6408    6381.0   442.265      9.6689   8.9575     0.0   27.0379
6418    6391.0   442.665      9.6823   8.9709     0.0   27.2249
6428    6401.0   443.065      9.6950   8.9836     0.0   27.3973
6438    6411.0   443.465      9.7085   8.9970     0.0   27.5985
6448    6421.0   443.865      9.7221   9.0107     0.0   27.7717
6458    6431.0   444.265      9.7352   9.0237     0.0   27.9462
6468    6441.0   444.665      9.7490   9.0375     0.0   28.1138
6478    6451.0   445.065      9.7619   9.0505     0.0   28.2812
6488    6461.0   445.465      9.7755   9.0641     0.0   28.4626
6498    6471.0   445.865      9.7886   9.0772     0.0   28.6355
6508    6481.0   446.265      9.8018   9.0903     0.0   28.7783
6518    6491.0   446.665      9.8153   9.1039     0.0   28.9597
6528    6501.0   447.065      9.8287   9.1173     0.0   29.1051
6538    6511.0   447.465      9.8421   9.1307     0.0   29.2059
6548    6521.0   447.865      9.8555   9.1441     0.0   29.3468
6558    6531.0   448.265      9.8687   9.1573     0.0   29.4520
6568    6541.0   448.665      9.8819   9.1705     0.0   29.5683
6578    6551.0   449.065      9.8955   9.1841     0.0   29.6829
6588    6561.0   449.465      9.9086   9.1972     0.0   29.8313
6598    6571.0   449.865      9.9224   9.2109     0.0   29.9880
6608    6581.0   450.265      9.9348   9.2234     0.0   30.1384
6618    6591.0   450.665      9.9486   9.2371     0.0   30.3065
6628    6601.0   451.065      9.9614   9.2500     0.0   30.4764
6638    6611.0   451.465      9.9755   9.2640     0.0   30.6378
6648    6621.0   451.865      9.9886   9.2772     0.0   30.8007
6658    6631.0   452.265     10.0025   9.2910     0.0   31.0045
6668    6641.0   452.665     10.0148   9.3034     0.0   31.1565
6678    6651.0   453.065     10.0289   9.3174     0.0   31.3287
6688    6661.0   453.465     10.0422   9.3308     0.0   31.4950
6698    6671.0   453.865     10.0558   9.3444     0.0   31.6667
6708    6681.0   454.265     10.0690   9.3575     0.0   31.8511
6718    6691.0   454.665     10.0828   9.3713     0.0   31.9862
6728    6701.0   455.065     10.0949   9.3835     0.0   32.1484
6738    6711.0   455.465     10.1088   9.3974     0.0   32.3126
6748    6721.0   455.865     10.1221   9.4106     0.0   32.4817
6758    6731.0   456.265     10.1364   9.4250     0.0   32.6776
6768    6741.0   456.665     10.1483   9.4368     0.0   32.8057
6778    6751.0   457.065     10.1621   9.4506     0.0   32.9698
6788    6761.0   457.465     10.1751   9.4637     0.0   33.1146
6798    6771.0   457.865     10.1889   9.4775     0.0   33.2568
6808    6781.0   458.265     10.2018   9.4903     0.0   33.4025
6818    6791.0   458.665     10.2155   9.5041     0.0   33.5652
6828    6801.0   459.065     10.2291   9.5177     0.0   33.7353
6838    6811.0   459.465     10.2424   9.5309     0.0   33.8792
6848    6821.0   459.865     10.2550   9.5436     0.0   34.0356
6858    6831.0   460.265     10.2686   9.5572     0.0   34.1925
6868    6841.0   460.665     10.2814   9.5699     0.0   34.3442
6878    6851.0   461.065     10.2953   9.5839     0.0   34.4995
6888    6861.0   461.465     10.3090   9.5976     0.0   34.6659
6898    6871.0   461.865     10.3213   9.6099     0.0   34.7835
6908    6881.0   462.265     10.3356   9.6241     0.0   34.9612
6924    6891.0   462.645     10.3232   9.6118     0.0   34.4941
6934    6901.0   463.045     10.3232   9.6118     0.0   34.4026
6944    6911.0   463.445     10.3233   9.6118     0.0   34.3019
6954    6921.0   463.845     10.3235   9.6120     0.0   34.2465
6964    6931.0   464.245     10.3231   9.6117     0.0   34.1864
6974    6941.0   464.645     10.3238   9.6124     0.0   34.1376
6984    6951.0   465.045     10.3229   9.6115     0.0   34.0716
6994    6961.0   465.445     10.3230   9.6116     0.0   34.0202
7004    6971.0   465.845     10.3230   9.6116     0.0   33.9843
7014    6981.0   466.245     10.3233   9.6118     0.0   33.9371
7024    6991.0   466.645     10.3230   9.6116     0.0   33.9029
7034    7001.0   467.045     10.3230   9.6116     0.0   33.8681
7044    7011.0   467.445     10.3235   9.6121     0.0   33.8195
7054    7021.0   467.845     10.3230   9.6116     0.0   33.7787
7064    7031.0   468.245     10.3234   9.6120     0.0   33.7504
7074    7041.0   468.645     10.3238   9.6124     0.0   33.7240
7084    7051.0   469.045     10.3230   9.6116     0.0   33.6739
7094    7061.0   469.445     10.3232   9.6118     0.0   33.6460
7104    7071.0   469.845     10.3231   9.6116     0.0   33.6174
7114    7081.0   470.245     10.3232   9.6118     0.0   33.5868
7124    7091.0   470.645     10.3234   9.6120     0.0   33.5536
7134    7101.0   471.045     10.3232   9.6118     0.0   33.5218
7144    7111.0   471.445     10.3231   9.6117     0.0   33.4822
7154    7121.0   471.845     10.3233   9.6119     0.0   33.4623
7164    7131.0   472.245     10.3232   9.6118     0.0   33.4328
7174    7141.0   472.645     10.3236   9.6121     0.0   33.4216
7184    7151.0   473.045     10.3233   9.6119     0.0   33.3922
7194    7161.0   473.445     10.3235   9.6120     0.0   33.3782
7204    7171.0   473.845     10.3235   9.6121     0.0   33.3600
7214    7181.0   474.245     10.3233   9.6119     0.0   33.3145
7224    7191.0   474.645     10.3231   9.6117     0.0   33.2927
7234    7201.0   475.045     10.3234   9.6120     0.0   33.2622
7244    7211.0   475.445     10.3237   9.6122     0.0   33.2551
7254    7221.0   475.845     10.3236   9.6121     0.0   33.2214
7264    7231.0   476.245     10.3232   9.6118     0.0   33.1852
7274    7241.0   476.645     10.3238   9.6123     0.0   33.1622
7284    7251.0   477.045     10.3229   9.6114     0.0   33.1644
7295    7261.0   477.445     10.3235   9.6121     0.0   33.1385
7305    7271.0   477.845     10.3223   9.6109     0.0   33.1126
7315    7281.0   478.245     10.3234   9.6120     0.0   33.1195
7325    7291.0   478.645     10.3234   9.6119     0.0   33.0873
7335    7301.0   479.045     10.3236   9.6122     0.0   33.0749
7345    7311.0   479.445     10.3231   9.6116     0.0   33.0690
7355    7321.0   479.845     10.3230   9.6116     0.0   33.0471
7365    7331.0   480.245     10.3230   9.6115     0.0   33.0360
7375    7341.0   480.645     10.3229   9.6114     0.0   33.0199
7385    7351.0   481.045     10.3232   9.6118     0.0   33.0141
7395    7361.0   481.445     10.3232   9.6118     0.0   32.9815
7405    7371.0   481.845     10.3233   9.6119     0.0   32.9748
7415    7381.0   482.245     10.3233   9.6118     0.0   32.9685
7425    7391.0   482.645     10.3234   9.6120     0.0   32.9693
7435    7401.0   483.045     10.3236   9.6122     0.0   32.9526
7445    7411.0   483.445     10.3232   9.6118     0.0   32.9287
7455    7421.0   483.845     10.3235   9.6121     0.0   32.9186
7465    7431.0   484.245     10.3231   9.6117     0.0   32.9108
7475    7441.0   484.645     10.3237   9.6123     0.0   32.8895
7485    7451.0   485.045     10.3232   9.6118     0.0   32.8922
7495    7461.0   485.445     10.3235   9.6120     0.0   32.8673
7505    7471.0   485.845     10.3235   9.6121     0.0   32.8336
7515    7481.0   486.245     10.3233   9.6119     0.0   32.8289
7525    7491.0   486.645     10.3240   9.6126     0.0   32.8207
7535    7501.0   487.045     10.3237   9.6123     0.0   32.7913
7545    7511.0   487.445     10.3235   9.6121     0.0   32.7951
7555    7521.0   487.845     10.3233   9.6119     0.0   32.7730
7565    7531.0   488.245     10.3243   9.6129     0.0   32.7615
7575    7541.0   488.645     10.3236   9.6122     0.0   32.7606
7585    7551.0   489.045     10.3235   9.6120     0.0   32.7364
7595    7561.0   489.445     10.3231   9.6117     0.0   32.7169
7605    7571.0   489.845     10.3233   9.6119     0.0   32.6812
7615    7581.0   490.245     10.3235   9.6120     0.0   32.6763
7625    7591.0   490.645     10.3238   9.6124     0.0   32.6641
7635    7601.0   491.045     10.3237   9.6123     0.0   32.6462
7645    7611.0   491.445     10.3232   9.6118     0.0   32.6220
7655    7621.0   491.845     10.3239   9.6124     0.0   32.6218
7665    7631.0   492.245     10.3234   9.6120     0.0   32.6179
7675    7641.0   492.645     10.3240   9.6125     0.0   32.6111
7685    7651.0   493.045     10.3235   9.6121     0.0   32.5839
7695    7661.0   493.445     10.3236   9.6122     0.0   32.5683
7705    7671.0   493.845     10.3231   9.6117     0.0   32.5664
7715    7681.0   494.245     10.3232   9.6118     0.0   32.5528
7725    7691.0   494.645     10.3238   9.6123     0.0   32.5396
7735    7701.0   495.045     10.3236   9.6121     0.0   32.5343
7745    7711.0   495.445     10.3235   9.6121     0.0   32.5229
7755    7721.0   495.845     10.3233   9.6119     0.0   32.5304
7765    7731.0   496.245     10.3236   9.6122     0.0   32.4920
7775    7741.0   496.645     10.3234   9.6119     0.0   32.4992
7785    7751.0   497.045     10.3231   9.6117     0.0   32.4892
7795    7761.0   497.445     10.3232   9.6118     0.0   32.4843
7805    7771.0   497.845     10.3235   9.6120     0.0   32.4596
7815    7781.0   498.245     10.3233   9.6118     0.0   32.4559
7825    7791.0   498.645     10.3238   9.6124     0.0   32.4522
7835    7801.0   499.045     10.3233   9.6119     0.0   32.4394
7845    7811.0   499.445     10.3235   9.6121     0.0   32.4325
7855    7821.0   499.845     10.3235   9.6121     0.0   32.4151
7865    7831.0   500.245     10.3238   9.6123     0.0   32.4046
7875    7841.0   500.645     10.3235   9.6120     0.0   32.3962
7885    7851.0   501.045     10.3235   9.6120     0.0   32.3919
7895    7861.0   501.445     10.3235   9.6121     0.0   32.3622
7905    7871.0   501.845     10.3237   9.6123     0.0   32.3679
7915    7881.0   502.245     10.3240   9.6126     0.0   32.3581
7925    7891.0   502.645     10.3234   9.6120     0.0   32.3503
7935    7901.0   503.045     10.3243   9.6128     0.0   32.3153
7945    7911.0   503.445     10.3235   9.6121     0.0   32.3150
7955    7921.0   503.845     10.3237   9.6122     0.0   32.3032
7965    7931.0   504.245     10.3235   9.6121     0.0   32.3007
7975    7941.0   504.645     10.3235   9.6121     0.0   32.2865
7985    7951.0   505.045     10.3234   9.6120     0.0   32.2839
7995    7961.0   505.445     10.3233   9.6119     0.0   32.2773
8005    7971.0   505.845     10.3235   9.6120     0.0   32.2609
8015    7981.0   506.245     10.3234   9.6120     0.0   32.2561
8025    7991.0   506.645     10.3234   9.6120     0.0   32.2615
8035    8001.0   507.045     10.3235   9.6121     0.0   32.2430
8045    8011.0   507.445     10.3231   9.6116     0.0   32.2397
8055    8021.0   507.845     10.3229   9.6115     0.0   32.2274
8065    8031.0   508.245     10.3234   9.6119     0.0   32.2240
8075    8041.0   508.645     10.3235   9.6120     0.0   32.2137
8085    8051.0   509.045     10.3232   9.6118     0.0   32.1984
8095    8061.0   509.445     10.3235   9.6121     0.0   32.1910
8105    8071.0   509.845     10.3237   9.6123     0.0   32.1818
8115    8081.0   510.245     10.3229   9.6115     0.0   32.1682
8125    8091.0   510.645     10.3233   9.6119     0.0   32.1772
8135    8101.0   511.045     10.3230   9.6115     0.0   32.1497
8145    8111.0   511.445     10.3233   9.6119     0.0   32.1319
8155    8121.0   511.845     10.3235   9.6120     0.0   32.1279
8165    8131.0   512.245     10.3237   9.6122     0.0   32.1229
8175    8141.0   512.645     10.3244   9.6130     0.0   32.1393
8185    8151.0   513.045     10.3233   9.6119     0.0   32.1286
8195    8161.0   513.445     10.3232   9.6117     0.0   32.1217
8205    8171.0   513.845     10.3233   9.6119     0.0   32.1263
8215    8181.0   514.245     10.3236   9.6121     0.0   32.1090
8225    8191.0   514.645     10.3232   9.6118     0.0   32.1041
8235    8201.0   515.045     10.3233   9.6119     0.0   32.0980
8245    8211.0   515.445     10.3227   9.6113     0.0   32.0862
8255    8221.0   515.845     10.3236   9.6121     0.0   32.0701
8265    8231.0   516.245     10.3237   9.6122     0.0   32.0620
8275    8241.0   516.645     10.3233   9.6119     0.0   32.0397
8285    8251.0   517.045     10.3235   9.6120     0.0   32.0374
8295    8261.0   517.445     10.3230   9.6115     0.0   32.0399
8305    8271.0   517.845     10.3231   9.6117     0.0   32.0191
8315    8281.0   518.245     10.3234   9.6119     0.0   32.0072
8325    8291.0   518.645     10.3230   9.6115     0.0   32.0048
8335    8301.0   519.045     10.3236   9.6122     0.0   31.9851
8345    8311.0   519.445     10.3232   9.6117     0.0   31.9746
8355    8321.0   519.845     10.3230   9.6116     0.0   31.9804
8365    8331.0   520.245     10.3230   9.6116     0.0   31.9895
8375    8341.0   520.645     10.3234   9.6119     0.0   31.9795
8385    8351.0   521.045     10.3232   9.6117     0.0   31.9763
8395    8361.0   521.445     10.3235   9.6120     0.0   31.9611
8405    8371.0   521.845     10.3234   9.6119     0.0   31.9462
8415    8381.0   522.245     10.3234   9.6119     0.0   31.9402
8425    8391.0   522.645     10.3234   9.6119     0.0   31.9383
8435    8401.0   523.045     10.3231   9.6117     0.0   31.9354
8445    8411.0   523.445     10.3235   9.6120     0.0   31.9381
8455    8421.0   523.845     10.3227   9.6113     0.0   31.9250
8465    8431.0   524.245     10.3229   9.6115     0.0   31.9192
8475    8441.0   524.645     10.3231   9.6117     0.0   31.9261
8485    8451.0   525.045     10.3238   9.6124     0.0   31.9145
8495    8461.0   525.445     10.3235   9.6121     0.0   31.9097
8505    8471.0   525.845     10.3228   9.6113     0.0   31.8910
8515    8481.0   526.245     10.3235   9.6121     0.0   31.8844
8525    8491.0   526.645     10.3239   9.6125     0.0   31.8851
8535    8501.0   527.045     10.3240   9.6126     0.0   31.8822
8545    8511.0   527.445     10.3237   9.6122     0.0   31.8545
8555    8521.0   527.845     10.3232   9.6117     0.0   31.8499
8565    8531.0   528.245     10.3234   9.6120     0.0   31.8649
8575    8541.0   528.645     10.3232   9.6117     0.0   31.8438
8585    8551.0   529.045     10.3235   9.6121     0.0   31.8354
8595    8561.0   529.445     10.3236   9.6122     0.0   31.8289
8605    8571.0   529.845     10.3234   9.6119     0.0   31.8409
8615    8581.0   530.245     10.3236   9.6122     0.0   31.8272
8625    8591.0   530.645     10.3234   9.6120     0.0   31.8378
8635    8601.0   531.045     10.3235   9.6121     0.0   31.8337
8645    8611.0   531.445     10.3230   9.6116     0.0   31.8421
8655    8621.0   531.845     10.3234   9.6120     0.0   31.8170
8665    8631.0   532.245     10.3234   9.6120     0.0   31.8212
8675    8641.0   532.645     10.3231   9.6116     0.0   31.8048
8685    8651.0   533.045     10.3233   9.6119     0.0   31.7763
8695    8661.0   533.445     10.3231   9.6117     0.0   31.7802
8705    8671.0   533.845     10.3237   9.6122     0.0   31.7828
8715    8681.0   534.245     10.3232   9.6117     0.0   31.7715
8725    8691.0   534.645     10.3236   9.6121     0.0   31.7769
8735    8701.0   535.045     10.3232   9.6117     0.0   31.7675
8745    8711.0   535.445     10.3234   9.6120     0.0   31.7612
8755    8721.0   535.845     10.3238   9.6124     0.0   31.7416
8765    8731.0   536.245     10.3237   9.6123     0.0   31.7405
8775    8741.0   536.645     10.3234   9.6119     0.0   31.7518
8785    8751.0   537.045     10.3235   9.6121     0.0   31.7540
8795    8761.0   537.445     10.3231   9.6117     0.0   31.7469
8805    8771.0   537.845     10.3236   9.6122     0.0   31.7398
8815    8781.0   538.245     10.3232   9.6118     0.0   31.7398
8825    8791.0   538.645     10.3231   9.6117     0.0   31.7487
8835    8801.0   539.045     10.3236   9.6122     0.0   31.7569
8845    8811.0   539.445     10.3238   9.6124     0.0   31.7299
8855    8821.0   539.845     10.3232   9.6118     0.0   31.7005
8865    8831.0   540.245     10.3235   9.6120     0.0   31.7030
8875    8841.0   540.645     10.3235   9.6121     0.0   31.6889
8885    8851.0   541.045     10.3232   9.6117     0.0   31.6660
8895    8861.0   541.445     10.3236   9.6122     0.0   31.6680
8905    8871.0   541.845     10.3232   9.6117     0.0   31.6694
8915    8881.0   542.245     10.3237   9.6123     0.0   31.6690
8925    8891.0   542.645     10.3238   9.6123     0.0   31.6587
8935    8901.0   543.045     10.3233   9.6119     0.0   31.6634
8945    8911.0   543.445     10.3234   9.6119     0.0   31.6681
8955    8921.0   543.845     10.3237   9.6122     0.0   31.6555
8965    8931.0   544.245     10.3234   9.6120     0.0   31.6532
8975    8941.0   544.645     10.3231   9.6117     0.0   31.6459
8985    8951.0   545.045     10.3234   9.6120     0.0   31.6547
8995    8961.0   545.445     10.3239   9.6124     0.0   31.6399
9005    8971.0   545.845     10.3233   9.6118     0.0   31.6184
9015    8981.0   546.245     10.3236   9.6121     0.0   31.6254
9025    8991.0   546.645     10.3235   9.6121     0.0   31.6156
9035    9001.0   547.045     10.3233   9.6119     0.0   31.6073
9045    9011.0   547.445     10.3236   9.6122     0.0   31.5952
9055    9021.0   547.845     10.3237   9.6122     0.0   31.6062
9065    9031.0   548.245     10.3233   9.6119     0.0   31.5970
9075    9041.0   548.645     10.3233   9.6119     0.0   31.6047
9085    9051.0   549.045     10.3233   9.6118     0.0   31.5800
9095    9061.0   549.445     10.3230   9.6116     0.0   31.5837
9105    9071.0   549.845     10.3231   9.6117     0.0   31.5820
9115    9081.0   550.245     10.3230   9.6115     0.0   31.5694
9125    9091.0   550.645     10.3235   9.6121     0.0   31.5730
9135    9101.0   551.045     10.3231   9.6117     0.0   31.5522
9145    9111.0   551.445     10.3233   9.6118     0.0   31.5553
9155    9121.0   551.845     10.3231   9.6116     0.0   31.5437
9165    9131.0   552.245     10.3229   9.6115     0.0   31.5226
9175    9141.0   552.645     10.3233   9.6119     0.0   31.5458
9185    9151.0   553.045     10.3237   9.6123     0.0   31.5202
9195    9161.0   553.445     10.3234   9.6119     0.0   31.5256
9205    9171.0   553.845     10.3235   9.6121     0.0   31.5398
9215    9181.0   554.245     10.3231   9.6117     0.0   31.5213
9225    9191.0   554.645     10.3230   9.6116     0.0   31.5196
9235    9201.0   555.045     10.3235   9.6120     0.0   31.5117
9245    9211.0   555.445     10.3232   9.6117     0.0   31.5060
9255    9221.0   555.845     10.3236   9.6122     0.0   31.4902
9265    9231.0   556.245     10.3241   9.6126     0.0   31.4756
9275    9241.0   556.645     10.3233   9.6119     0.0   31.4715
9285    9251.0   557.045     10.3235   9.6120     0.0   31.4627
9295    9261.0   557.445     10.3237   9.6123     0.0   31.4622
9305    9271.0   557.845     10.3235   9.6121     0.0   31.4537
9315    9281.0   558.245     10.3233   9.6119     0.0   31.4501
9325    9291.0   558.645     10.3234   9.6120     0.0   31.4478
9335    9301.0   559.045     10.3234   9.6120     0.0   31.4590
9345    9311.0   559.445     10.3232   9.6117     0.0   31.4469
9355    9321.0   559.845     10.3233   9.6119     0.0   31.4326
9365    9331.0   560.245     10.3236   9.6121     0.0   31.4522
9375    9341.0   560.645     10.3230   9.6116     0.0   31.4507
9385    9351.0   561.045     10.3235   9.6121     0.0   31.4288
9395    9361.0   561.445     10.3236   9.6121     0.0   31.4269
9405    9371.0   561.845     10.3235   9.6120     0.0   31.4345
9415    9381.0   562.245     10.3230   9.6116     0.0   31.4282
9425    9391.0   562.645     10.3235   9.6121     0.0   31.4341
9435    9401.0   563.045     10.3234   9.6119     0.0   31.4205
9445    9411.0   563.445     10.3238   9.6124     0.0   31.4165
9455    9421.0   563.845     10.3235   9.6121     0.0   31.4307
9465    9431.0   564.245     10.3232   9.6117     0.0   31.4339
9475    9441.0   564.645     10.3238   9.6123     0.0   31.4325
9485    9451.0   565.045     10.3240   9.6125     0.0   31.4276
9495    9461.0   565.445     10.3237   9.6122     0.0   31.4175
9505    9471.0   565.845     10.3236   9.6122     0.0   31.3969
9515    9481.0   566.245     10.3235   9.6121     0.0   31.4027
9525    9491.0   566.645     10.3232   9.6118     0.0   31.3978
9535    9501.0   567.045     10.3231   9.6117     0.0   31.3853
9545    9511.0   567.445     10.3238   9.6124     0.0   31.3939
9555    9521.0   567.845     10.3232   9.6118     0.0   31.3790
9565    9531.0   568.245     10.3233   9.6118     0.0   31.3777
9575    9541.0   568.645     10.3235   9.6121     0.0   31.3702
9585    9551.0   569.045     10.3236   9.6122     0.0   31.3668
9595    9561.0   569.445     10.3235   9.6121     0.0   31.3531
9605    9571.0   569.845     10.3234   9.6119     0.0   31.3396
9615    9581.0   570.245     10.3232   9.6118     0.0   31.3424
9625    9591.0   570.645     10.3231   9.6117     0.0   31.3222
9635    9601.0   571.045     10.3235   9.6121     0.0   31.3357
9645    9611.0   571.445     10.3236   9.6122     0.0   31.3260
9662    9621.0   571.915     10.3321   9.6207     0.0   31.5967
9672    9631.0   572.315     10.3452   9.6338     0.0   31.9601
9682    9641.0   572.715     10.3595   9.6480     0.0   32.3377
9692    9651.0   573.115     10.3720   9.6606     0.0   32.6526
9702    9661.0   573.515     10.3859   9.6745     0.0   32.9978
9712    9671.0   573.915     10.3990   9.6876     0.0   33.3209
9722    9681.0   574.315     10.4121   9.7006     0.0   33.6268
9732    9691.0   574.715     10.4256   9.7142     0.0   33.9317
9742    9701.0   575.115     10.4388   9.7274     0.0   34.2358
9752    9711.0   575.515     10.4524   9.7409     0.0   34.5183
9762    9721.0   575.915     10.4662   9.7548     0.0   34.7873
9772    9731.0   576.315     10.4790   9.7675     0.0   35.0634
9782    9741.0   576.715     10.4924   9.7810     0.0   35.3179
9792    9751.0   577.115     10.5052   9.7938     0.0   35.5741
9802    9761.0   577.515     10.5184   9.8070     0.0   35.8416
9812    9771.0   577.915     10.5326   9.8211     0.0   36.0825
9822    9781.0   578.315     10.5465   9.8350     0.0   36.3223
9832    9791.0   578.715     10.5586   9.8472     0.0   36.5395
9842    9801.0   579.115     10.5725   9.8611     0.0   36.7738
9852    9811.0   579.515     10.5855   9.8740     0.0   37.0127
9862    9821.0   579.915     10.5985   9.8871     0.0   37.2142
9872    9831.0   580.315     10.6123   9.9009     0.0   37.4356
9882    9841.0   580.715     10.6252   9.9137     0.0   37.6124
9892    9851.0   581.115     10.6387   9.9273     0.0   37.8167
9902    9861.0   581.515     10.6519   9.9404     0.0   38.0059
9912    9871.0   581.915     10.6657   9.9543     0.0   38.2166
9922    9881.0   582.315     10.6787   9.9673     0.0   38.3929
9932    9891.0   582.715     10.6922   9.9808     0.0   38.5764
9942    9901.0   583.115     10.7053   9.9939     0.0   38.7782
9952    9911.0   583.515     10.7181  10.0067     0.0   38.9381
9962    9921.0   583.915     10.7326  10.0212     0.0   39.1454
9972    9931.0   584.315     10.7458  10.0343     0.0   39.3215
9982    9941.0   584.715     10.7589  10.0475     0.0   39.5207
9992    9951.0   585.115     10.7719  10.0604     0.0   39.6964
10002   9961.0   585.515     10.7856  10.0742     0.0   39.8639
10012   9971.0   585.915     10.7982  10.0868     0.0   40.0370
10022   9981.0   586.315     10.8121  10.1006     0.0   40.2199
10032   9991.0   586.715     10.8254  10.1139     0.0   40.3893
10042  10001.0   587.115     10.8391  10.1277     0.0   40.5636
10052  10011.0   587.515     10.8521  10.1407     0.0   40.7407
10062  10021.0   587.915     10.8658  10.1544     0.0   40.9199
10072  10031.0   588.315     10.8788  10.1674     0.0   41.0692
10082  10041.0   588.715     10.8918  10.1804     0.0   41.2652
10092  10051.0   589.115     10.9054  10.1940     0.0   41.4489
10102  10061.0   589.515     10.9187  10.2072     0.0   41.6337
10112  10071.0   589.915     10.9318  10.2203     0.0   41.8028
10122  10081.0   590.315     10.9452  10.2337     0.0   41.9890
10132  10091.0   590.715     10.9586  10.2472     0.0   42.1517
10142  10101.0   591.115     10.9724  10.2609     0.0   42.3309
10152  10111.0   591.515     10.9856  10.2741     0.0   42.4882
10162  10121.0   591.915     10.9992  10.2877     0.0   42.6782
10172  10131.0   592.315     11.0115  10.3001     0.0   42.8336
10182  10141.0   592.715     11.0257  10.3143     0.0   43.0027
10192  10151.0   593.115     11.0398  10.3284     0.0   43.1813
10202  10161.0   593.515     11.0524  10.3409     0.0   43.3365
10212  10171.0   593.915     11.0654  10.3540     0.0   43.5269
10222  10181.0   594.315     11.0781  10.3666     0.0   43.6845
10232  10191.0   594.715     11.0925  10.3811     0.0   43.8616
10242  10201.0   595.115     11.1050  10.3935     0.0   44.0210
10252  10211.0   595.515     11.1185  10.4070     0.0   44.1843
10262  10221.0   595.915     11.1321  10.4206     0.0   44.3455
10272  10231.0   596.315     11.1458  10.4344     0.0   44.5330
10282  10241.0   596.715     11.1588  10.4473     0.0   44.6883
10292  10251.0   597.115     11.1723  10.4609     0.0   44.8610
10302  10261.0   597.499     11.1848  10.4734     0.0   45.0145
10318  10271.0   597.940     11.1686  10.4572     0.0   44.4042
10328  10281.0   598.340     11.1684  10.4569     0.0   44.3439
10338  10291.0   598.740     11.1686  10.4572     0.0   44.2544
10348  10301.0   599.140     11.1685  10.4571     0.0   44.1687
10358  10311.0   599.540     11.1690  10.4576     0.0   44.1075
10368  10321.0   599.940     11.1684  10.4570     0.0   44.0525
10378  10331.0   600.340     11.1691  10.4576     0.0   44.0044
10388  10341.0   600.740     11.1688  10.4574     0.0   43.9404
10398  10351.0   601.140     11.1685  10.4570     0.0   43.8853
10408  10361.0   601.540     11.1687  10.4573     0.0   43.8495
10418  10371.0   601.940     11.1678  10.4564     0.0   43.7818
10428  10381.0   602.340     11.1680  10.4565     0.0   43.7565
10438  10391.0   602.740     11.1686  10.4572     0.0   43.7201
10448  10401.0   603.140     11.1686  10.4572     0.0   43.6638
10458  10411.0   603.540     11.1684  10.4569     0.0   43.6410
10468  10421.0   603.940     11.1692  10.4578     0.0   43.6125
10478  10431.0   604.340     11.1688  10.4574     0.0   43.5638
10488  10441.0   604.740     11.1685  10.4570     0.0   43.5288
10498  10451.0   605.140     11.1687  10.4573     0.0   43.4853
10508  10461.0   605.540     11.1688  10.4573     0.0   43.4314
10518  10471.0   605.940     11.1687  10.4573     0.0   43.4271
10528  10481.0   606.340     11.1690  10.4576     0.0   43.3941
10538  10491.0   606.740     11.1687  10.4573     0.0   43.3597
10548  10501.0   607.140     11.1693  10.4578     0.0   43.3501
10558  10511.0   607.540     11.1690  10.4575     0.0   43.3077
10568  10521.0   607.940     11.1685  10.4571     0.0   43.2787
10578  10531.0   608.340     11.1685  10.4570     0.0   43.2553
10589  10541.0   608.740     11.1687  10.4572     0.0   43.2268
10599  10551.0   609.140     11.1693  10.4578     0.0   43.2078
10609  10561.0   609.540     11.1693  10.4579     0.0   43.1983
10619  10571.0   609.940     11.1693  10.4578     0.0   43.1628
10629  10581.0   610.340     11.1688  10.4573     0.0   43.1317
10639  10591.0   610.740     11.1694  10.4579     0.0   43.1308
10649  10601.0   611.140     11.1687  10.4573     0.0   43.1097
10659  10611.0   611.540     11.1689  10.4574     0.0   43.0869
10669  10621.0   611.940     11.1688  10.4574     0.0   43.0386
10679  10631.0   612.340     11.1687  10.4573     0.0   43.0188
10689  10641.0   612.740     11.1688  10.4574     0.0   43.0226
10699  10651.0   613.140     11.1692  10.4578     0.0   43.0061
10709  10661.0   613.540     11.1691  10.4577     0.0   42.9778
10719  10671.0   613.940     11.1686  10.4572     0.0   42.9642
10729  10681.0   614.340     11.1688  10.4573     0.0   42.9390
10739  10691.0   614.740     11.1689  10.4575     0.0   42.9163
10749  10701.0   615.140     11.1683  10.4569     0.0   42.8889
10759  10711.0   615.540     11.1689  10.4574     0.0   42.8833
10769  10721.0   615.940     11.1688  10.4574     0.0   42.8624
10779  10731.0   616.340     11.1691  10.4577     0.0   42.8479
10789  10741.0   616.740     11.1684  10.4570     0.0   42.8247
10799  10751.0   617.140     11.1689  10.4574     0.0   42.8029
10809  10761.0   617.540     11.1690  10.4576     0.0   42.7900
10819  10771.0   617.940     11.1697  10.4582     0.0   42.7648
10829  10781.0   618.340     11.1689  10.4575     0.0   42.7465
10839  10791.0   618.740     11.1690  10.4576     0.0   42.7158
10849  10801.0   619.140     11.1688  10.4574     0.0   42.7298
10859  10811.0   619.540     11.1690  10.4576     0.0   42.7135
10869  10821.0   619.940     11.1685  10.4571     0.0   42.6906
10879  10831.0   620.340     11.1695  10.4580     0.0   42.6870
10889  10841.0   620.740     11.1689  10.4575     0.0   42.6674
10899  10851.0   621.140     11.1691  10.4576     0.0   42.6389
10909  10861.0   621.540     11.1690  10.4575     0.0   42.6352
10919  10871.0   621.940     11.1686  10.4571     0.0   42.6165
10929  10881.0   622.340     11.1695  10.4580     0.0   42.5943
10939  10891.0   622.740     11.1686  10.4571     0.0   42.5642
10949  10901.0   623.140     11.1697  10.4582     0.0   42.5656
10959  10911.0   623.540     11.1686  10.4572     0.0   42.5470
10969  10921.0   623.940     11.1686  10.4572     0.0   42.5357
10979  10931.0   624.340     11.1689  10.4575     0.0   42.5242
10989  10941.0   624.740     11.1691  10.4576     0.0   42.5055
10999  10951.0   625.140     11.1690  10.4576     0.0   42.5044
11009  10961.0   625.540     11.1687  10.4573     0.0   42.4757
11019  10971.0   625.940     11.1693  10.4579     0.0   42.4624
11029  10981.0   626.340     11.1685  10.4570     0.0   42.4504
11039  10991.0   626.740     11.1690  10.4576     0.0   42.4354
11049  11001.0   627.140     11.1689  10.4575     0.0   42.4027
11059  11011.0   627.540     11.1689  10.4575     0.0   42.4121
11069  11021.0   627.940     11.1690  10.4575     0.0   42.4064
11079  11031.0   628.340     11.1689  10.4575     0.0   42.3869
11089  11041.0   628.740     11.1691  10.4576     0.0   42.3634
11099  11051.0   629.140     11.1691  10.4576     0.0   42.3403
11109  11061.0   629.540     11.1689  10.4574     0.0   42.3305
11119  11071.0   629.940     11.1687  10.4573     0.0   42.3162
11129  11081.0   630.340     11.1685  10.4570     0.0   42.2853
11139  11091.0   630.740     11.1687  10.4572     0.0   42.3078
11149  11101.0   631.140     11.1688  10.4574     0.0   42.2854
11159  11111.0   631.540     11.1687  10.4572     0.0   42.2782
11169  11121.0   631.940     11.1686  10.4572     0.0   42.2637
11179  11131.0   632.340     11.1687  10.4573     0.0   42.2507
11189  11141.0   632.740     11.1688  10.4573     0.0   42.2414
11199  11151.0   633.140     11.1695  10.4580     0.0   42.2241
11209  11161.0   633.540     11.1684  10.4569     0.0   42.2046
11219  11171.0   633.940     11.1688  10.4574     0.0   42.1974
11229  11181.0   634.340     11.1689  10.4575     0.0   42.1897
11239  11191.0   634.740     11.1690  10.4575     0.0   42.1967
11249  11201.0   635.140     11.1690  10.4576     0.0   42.1809
11259  11211.0   635.540     11.1692  10.4578     0.0   42.1587
11269  11221.0   635.940     11.1690  10.4575     0.0   42.1611
11279  11231.0   636.340     11.1690  10.4576     0.0   42.1315
11289  11241.0   636.740     11.1689  10.4575     0.0   42.1257
11299  11251.0   637.140     11.1694  10.4579     0.0   42.1239
11309  11261.0   637.540     11.1687  10.4572     0.0   42.0853
11319  11271.0   637.940     11.1688  10.4573     0.0   42.0855
11329  11281.0   638.340     11.1685  10.4571     0.0   42.0819
11339  11291.0   638.740     11.1687  10.4573     0.0   42.0635
11349  11301.0   639.140     11.1688  10.4574     0.0   42.0525
11359  11311.0   639.540     11.1689  10.4575     0.0   42.0469
11369  11321.0   639.940     11.1691  10.4576     0.0   42.0312
11379  11331.0   640.340     11.1689  10.4574     0.0   42.0223
11389  11341.0   640.740     11.1686  10.4572     0.0   41.9915
11399  11351.0   641.140     11.1686  10.4572     0.0   42.0064
11409  11361.0   641.540     11.1688  10.4573     0.0   42.0003
11419  11371.0   641.940     11.1689  10.4575     0.0   41.9976
11429  11381.0   642.340     11.1694  10.4580     0.0   41.9725
11439  11391.0   642.740     11.1685  10.4570     0.0   41.9587
11449  11401.0   643.140     11.1688  10.4573     0.0   41.9504
11459  11411.0   643.540     11.1693  10.4579     0.0   41.9601
11469  11421.0   643.940     11.1690  10.4576     0.0   41.9624
11479  11431.0   644.340     11.1687  10.4572     0.0   41.9311
11489  11441.0   644.740     11.1695  10.4581     0.0   41.9192
11499  11451.0   645.140     11.1689  10.4575     0.0   41.9134
11509  11461.0   645.540     11.1686  10.4572     0.0   41.8989
11519  11471.0   645.940     11.1687  10.4573     0.0   41.8864
11529  11481.0   646.340     11.1686  10.4571     0.0   41.8853
11539  11491.0   646.740     11.1693  10.4579     0.0   41.8674
11549  11501.0   647.140     11.1691  10.4576     0.0   41.8852
11559  11511.0   647.540     11.1685  10.4570     0.0   41.8875
11569  11521.0   647.940     11.1688  10.4574     0.0   41.8467
11579  11531.0   648.340     11.1688  10.4574     0.0   41.8461
11589  11541.0   648.740     11.1685  10.4571     0.0   41.8543
11599  11551.0   649.140     11.1693  10.4579     0.0   41.8295
11609  11561.0   649.540     11.1686  10.4572     0.0   41.7973
11619  11571.0   649.940     11.1690  10.4575     0.0   41.8302
11629  11581.0   650.340     11.1685  10.4570     0.0   41.7728
11639  11591.0   650.740     11.1687  10.4573     0.0   41.7708
11649  11601.0   651.140     11.1694  10.4580     0.0   41.7703
11659  11611.0   651.540     11.1685  10.4571     0.0   41.7595
11669  11621.0   651.940     11.1692  10.4578     0.0   41.7360
11679  11631.0   652.340     11.1689  10.4575     0.0   41.7197
11689  11641.0   652.740     11.1683  10.4569     0.0   41.7271
11699  11651.0   653.140     11.1685  10.4571     0.0   41.7277
11709  11661.0   653.540     11.1689  10.4574     0.0   41.7056
11719  11671.0   653.940     11.1687  10.4573     0.0   41.7063
11729  11681.0   654.340     11.1684  10.4570     0.0   41.7037
11739  11691.0   654.740     11.1687  10.4573     0.0   41.6855
11749  11701.0   655.140     11.1689  10.4575     0.0   41.6709
11759  11711.0   655.540     11.1683  10.4569     0.0   41.6703
11769  11721.0   655.940     11.1687  10.4573     0.0   41.6810
11779  11731.0   656.340     11.1687  10.4572     0.0   41.6724
11789  11741.0   656.740     11.1688  10.4574     0.0   41.6533
11799  11751.0   657.140     11.1689  10.4574     0.0   41.6579
11809  11761.0   657.540     11.1689  10.4575     0.0   41.6461
11819  11771.0   657.940     11.1691  10.4577     0.0   41.6312
11829  11781.0   658.340     11.1682  10.4568     0.0   41.6204
11839  11791.0   658.740     11.1689  10.4575     0.0   41.6128
11849  11801.0   659.140     11.1692  10.4578     0.0   41.6061
11859  11811.0   659.540     11.1690  10.4575     0.0   41.6080
11869  11821.0   659.940     11.1684  10.4570     0.0   41.6286
11879  11831.0   660.340     11.1690  10.4575     0.0   41.6314
11889  11841.0   660.740     11.1690  10.4575     0.0   41.6238
11899  11851.0   661.140     11.1682  10.4568     0.0   41.5967
11909  11861.0   661.540     11.1684  10.4570     0.0   41.6013
11919  11871.0   661.940     11.1689  10.4575     0.0   41.5888
11929  11881.0   662.340     11.1683  10.4568     0.0   41.5788
11939  11891.0   662.740     11.1687  10.4572     0.0   41.5710
11949  11901.0   663.140     11.1687  10.4572     0.0   41.5827
11959  11911.0   663.540     11.1689  10.4575     0.0   41.5387
11969  11921.0   663.940     11.1694  10.4580     0.0   41.5502
11979  11931.0   664.340     11.1684  10.4570     0.0   41.5532
11989  11941.0   664.740     11.1686  10.4571     0.0   41.5413
11999  11951.0   665.140     11.1695  10.4581     0.0   41.5276
12009  11961.0   665.540     11.1685  10.4571     0.0   41.5292
12019  11971.0   665.940     11.1694  10.4579     0.0   41.5144
12029  11981.0   666.340     11.1683  10.4569     0.0   41.5010
12039  11991.0   666.740     11.1688  10.4573     0.0   41.5046
12049  12001.0   667.140     11.1686  10.4572     0.0   41.4946
12059  12011.0   667.540     11.1683  10.4569     0.0   41.4993
12069  12021.0   667.940     11.1687  10.4572     0.0   41.4883
12079  12031.0   668.340     11.1691  10.4576     0.0   41.4707
12089  12041.0   668.740     11.1683  10.4569     0.0   41.4843
12099  12051.0   669.140     11.1693  10.4578     0.0   41.4776
12109  12061.0   669.540     11.1688  10.4573     0.0   41.4557
12119  12071.0   669.940     11.1685  10.4571     0.0   41.4423
12129  12081.0   670.340     11.1689  10.4574     0.0   41.4578
12139  12091.0   670.740     11.1692  10.4578     0.0   41.4536
12149  12101.0   671.140     11.1685  10.4570     0.0   41.4200
12159  12111.0   671.540     11.1691  10.4576     0.0   41.4085
12169  12121.0   671.940     11.1694  10.4579     0.0   41.4147
12179  12131.0   672.340     11.1689  10.4574     0.0   41.4075
12189  12141.0   672.740     11.1686  10.4572     0.0   41.3713
12199  12151.0   673.140     11.1690  10.4576     0.0   41.3708
12209  12161.0   673.540     11.1692  10.4578     0.0   41.3682
12219  12171.0   673.940     11.1690  10.4576     0.0   41.3473
12229  12181.0   674.340     11.1691  10.4577     0.0   41.3237
12239  12191.0   674.740     11.1690  10.4576     0.0   41.3408
12249  12201.0   675.140     11.1685  10.4571     0.0   41.3183
12259  12211.0   675.540     11.1689  10.4574     0.0   41.3077
12269  12221.0   675.940     11.1690  10.4576     0.0   41.3264
12279  12231.0   676.340     11.1693  10.4579     0.0   41.3106
12289  12241.0   676.740     11.1689  10.4575     0.0   41.2997
12299  12251.0   677.140     11.1692  10.4578     0.0   41.3039
12309  12261.0   677.540     11.1689  10.4574     0.0   41.3001
12319  12271.0   677.940     11.1682  10.4567     0.0   41.2868
12329  12281.0   678.340     11.1685  10.4570     0.0   41.2766
12339  12291.0   678.740     11.1693  10.4578     0.0   41.2710
12349  12301.0   679.140     11.1689  10.4575     0.0   41.2629
12359  12311.0   679.540     11.1687  10.4573     0.0   41.2456
12369  12321.0   679.940     11.1686  10.4572     0.0   41.2354
12379  12331.0   680.340     11.1690  10.4576     0.0   41.2497
12389  12341.0   680.740     11.1691  10.4576     0.0   41.2485
12399  12351.0   681.140     11.1686  10.4572     0.0   41.2300
12409  12361.0   681.540     11.1687  10.4573     0.0   41.2161
12419  12371.0   681.940     11.1691  10.4577     0.0   41.2283
12429  12381.0   682.340     11.1687  10.4573     0.0   41.2147
12439  12391.0   682.740     11.1688  10.4574     0.0   41.2274
12449  12401.0   683.140     11.1689  10.4574     0.0   41.2169
12459  12411.0   683.540     11.1693  10.4579     0.0   41.2143
12469  12421.0   683.940     11.1690  10.4576     0.0   41.2151
12479  12431.0   684.340     11.1690  10.4576     0.0   41.1991
12489  12441.0   684.740     11.1683  10.4569     0.0   41.1952
12499  12451.0   685.140     11.1684  10.4570     0.0   41.1881
12509  12461.0   685.540     11.1685  10.4571     0.0   41.1814
12519  12471.0   685.940     11.1687  10.4573     0.0   41.1756
12529  12481.0   686.340     11.1683  10.4568     0.0   41.1668
12539  12491.0   686.740     11.1690  10.4576     0.0   41.1655
12549  12501.0   687.140     11.1691  10.4576     0.0   41.1495
12559  12511.0   687.540     11.1687  10.4573     0.0   41.1469
12569  12521.0   687.940     11.1688  10.4574     0.0   41.1363
12579  12531.0   688.340     11.1691  10.4576     0.0   41.1329
12589  12541.0   688.740     11.1694  10.4580     0.0   41.1299
12599  12551.0   689.140     11.1688  10.4573     0.0   41.1403
12609  12561.0   689.540     11.1681  10.4567     0.0   41.1487
12619  12571.0   689.940     11.1688  10.4574     0.0   41.1606
12629  12581.0   690.340     11.1694  10.4579     0.0   41.1558
12639  12591.0   690.740     11.1685  10.4570     0.0   41.1432
12649  12601.0   691.140     11.1690  10.4576     0.0   41.1365
12659  12611.0   691.540     11.1688  10.4574     0.0   41.1358
12669  12621.0   691.940     11.1693  10.4578     0.0   41.1299
12679  12631.0   692.340     11.1693  10.4579     0.0   41.1139
12689  12641.0   692.740     11.1686  10.4572     0.0   41.1092
12699  12651.0   693.140     11.1688  10.4574     0.0   41.0934
12709  12661.0   693.540     11.1692  10.4577     0.0   41.0854
12719  12671.0   693.940     11.1689  10.4574     0.0   41.0876
12729  12681.0   694.340     11.1692  10.4578     0.0   41.0887
12739  12691.0   694.740     11.1691  10.4577     0.0   41.0788
12749  12701.0   695.140     11.1685  10.4571     0.0   41.0561
12759  12711.0   695.540     11.1689  10.4575     0.0   41.0714
12769  12721.0   695.940     11.1693  10.4579     0.0   41.0516
12779  12731.0   696.340     11.1683  10.4569     0.0   41.0452
12789  12741.0   696.740     11.1691  10.4577     0.0   41.0379
12799  12751.0   697.140     11.1684  10.4569     0.0   41.0412
12809  12761.0   697.540     11.1694  10.4579     0.0   41.0246
12819  12771.0   697.940     11.1688  10.4574     0.0   41.0205
12829  12781.0   698.340     11.1684  10.4570     0.0   41.0291
12839  12791.0   698.740     11.1695  10.4581     0.0   40.9999
12849  12801.0   699.140     11.1688  10.4573     0.0   41.0074
12859  12811.0   699.540     11.1689  10.4575     0.0   40.9989
12869  12821.0   699.940     11.1687  10.4573     0.0   40.9876
12879  12831.0   700.340     11.1693  10.4578     0.0   40.9889
12889  12841.0   700.740     11.1689  10.4574     0.0   40.9800
12899  12851.0   701.140     11.1683  10.4569     0.0   40.9862
12915  12861.0   701.600     11.1690  10.4576     0.0   40.9823
12925  12871.0   702.000     11.1833  10.4718     0.0   41.4062
12935  12881.0   702.400     11.1965  10.4851     0.0   41.7786
12945  12891.0   702.800     11.2105  10.4991     0.0   42.1730
12955  12901.0   703.200     11.2228  10.5114     0.0   42.5128
12965  12911.0   703.600     11.2372  10.5257     0.0   42.8678
12975  12921.0   704.000     11.2502  10.5387     0.0   43.1779
12985  12931.0   704.400     11.2635  10.5520     0.0   43.5073
12995  12941.0   704.800     11.2766  10.5651     0.0   43.7979
13005  12951.0   705.200     11.2895  10.5781     0.0   44.0874
13015  12961.0   705.600     11.3028  10.5914     0.0   44.3715
13025  12971.0   706.000     11.3164  10.6050     0.0   44.6682
13035  12981.0   706.400     11.3296  10.6181     0.0   44.9473
13045  12991.0   706.800     11.3427  10.6313     0.0   45.2248
13055  13001.0   707.200     11.3564  10.6450     0.0   45.4879
13065  13011.0   707.600     11.3694  10.6580     0.0   45.7170
13075  13021.0   708.000     11.3835  10.6721     0.0   45.9873
13085  13031.0   708.400     11.3966  10.6852     0.0   46.2380
13095  13041.0   708.800     11.4099  10.6985     0.0   46.4652
13105  13051.0   709.200     11.4228  10.7113     0.0   46.6962
13115  13061.0   709.600     11.4363  10.7248     0.0   46.9343
13125  13071.0   710.000     11.4501  10.7386     0.0   47.1370
13135  13081.0   710.400     11.4630  10.7515     0.0   47.3354
13145  13091.0   710.800     11.4763  10.7649     0.0   47.5526
13155  13101.0   711.200     11.4894  10.7779     0.0   47.7383
13165  13111.0   711.600     11.5030  10.7916     0.0   47.9599
13175  13121.0   712.000     11.5159  10.8045     0.0   48.1353
13185  13131.0   712.400     11.5300  10.8185     0.0   48.3013
13195  13141.0   712.800     11.5434  10.8320     0.0   48.5081
13205  13151.0   713.200     11.5563  10.8448     0.0   48.6726
13215  13161.0   713.600     11.5691  10.8576     0.0   48.8658
13225  13171.0   714.000     11.5828  10.8713     0.0   49.0602
13235  13181.0   714.400     11.5970  10.8856     0.0   49.2458
13245  13191.0   714.800     11.6097  10.8983     0.0   49.4136
13255  13201.0   715.200     11.6230  10.9115     0.0   49.5768
13265  13211.0   715.600     11.6364  10.9250     0.0   49.7585
13275  13221.0   716.000     11.6496  10.9382     0.0   49.9301
13285  13231.0   716.400     11.6630  10.9516     0.0   50.1035
13295  13241.0   716.800     11.6762  10.9647     0.0   50.2686
13305  13251.0   717.200     11.6898  10.9783     0.0   50.4381
13315  13261.0   717.600     11.7024  10.9910     0.0   50.6094
13325  13271.0   718.000     11.7162  11.0048     0.0   50.7917
13335  13281.0   718.400     11.7298  11.0184     0.0   50.9314
13345  13291.0   718.800     11.7426  11.0312     0.0   51.1204
13355  13301.0   719.200     11.7562  11.0448     0.0   51.2708
13365  13311.0   719.600     11.7691  11.0577     0.0   51.4350
13375  13321.0   720.000     11.7828  11.0713     0.0   51.5911
13385  13331.0   720.400     11.7962  11.0848     0.0   51.7507
13395  13341.0   720.800     11.8093  11.0979     0.0   51.9067
13405  13351.0   721.200     11.8226  11.1112     0.0   52.0563
13415  13361.0   721.600     11.8362  11.1248     0.0   52.2393
13425  13371.0   722.000     11.8493  11.1379     0.0   52.3886
13435  13381.0   722.400     11.8623  11.1508     0.0   52.5370
13445  13391.0   722.800     11.8759  11.1644     0.0   52.6943
13455  13401.0   723.200     11.8891  11.1777     0.0   52.8391
13465  13411.0   723.600     11.9028  11.1913     0.0   52.9984
13475  13421.0   724.000     11.9165  11.2050     0.0   53.1631
13485  13431.0   724.400     11.9290  11.2175     0.0   53.2945
13495  13441.0   724.800     11.9424  11.2310     0.0   53.4156
13505  13451.0   725.200     11.9565  11.2451     0.0   53.5891
13515  13461.0   725.600     11.9699  11.2585     0.0   53.7327
13525  13471.0   726.000     11.9833  11.2719     0.0   53.8705
13535  13481.0   726.400     11.9960  11.2846     0.0   53.9899
13545  13491.0   726.800     12.0092  11.2978     0.0   54.1392
13555  13501.0   727.200     12.0232  11.3117     0.0   54.2958
13565  13511.0   727.600     12.0366  11.3251     0.0   54.4415
13575  13521.0   728.000     12.0497  11.3383     0.0   54.5661
13585  13531.0   728.400     12.0627  11.3513     0.0   54.6727
13595  13541.0   728.800     12.0768  11.3654     0.0   54.8206
13605  13551.0   729.200     12.0884  11.3770     0.0   54.9458
13615  13561.0   729.600     12.1024  11.3910     0.0   55.0877
13625  13571.0   730.000     12.1162  11.4047     0.0   55.2205
13635  13581.0   730.400     12.1296  11.4182     0.0   55.3726
13645  13591.0   730.800     12.1427  11.4312     0.0   55.4865
13655  13601.0   731.200     12.1564  11.4450     0.0   55.6030
13665  13611.0   731.600     12.1693  11.4579     0.0   55.7647
13675  13621.0   732.000     12.1827  11.4713     0.0   55.8765
13685  13631.0   732.400     12.1961  11.4847     0.0   56.0120
13695  13641.0   732.800     12.2097  11.4983     0.0   56.1291
13705  13651.0   733.200     12.2230  11.5116     0.0   56.2461
13715  13661.0   733.600     12.2363  11.5249     0.0   56.3374
13725  13671.0   734.000     12.2495  11.5380     0.0   56.4768
13735  13681.0   734.400     12.2628  11.5513     0.0   56.5828
13745  13691.0   734.800     12.2763  11.5649     0.0   56.7307
13755  13701.0   735.200     12.2894  11.5780     0.0   56.8360
13765  13711.0   735.600     12.3025  11.5911     0.0   56.9307
13775  13721.0   736.000     12.3162  11.6047     0.0   57.0781
13785  13731.0   736.400     12.3297  11.6182     0.0   57.1595
13795  13741.0   736.800     12.3434  11.6320     0.0   57.2778
13805  13751.0   737.200     12.3564  11.6449     0.0   57.3954
13815  13761.0   737.600     12.3693  11.6579     0.0   57.4636
13825  13771.0   738.000     12.3824  11.6710     0.0   57.5849
13835  13781.0   738.400     12.3960  11.6845     0.0   57.6977
13845  13791.0   738.800     12.4094  11.6980     0.0   57.7960
13855  13801.0   739.200     12.4233  11.7118     0.0   57.9334
13865  13811.0   739.600     12.4361  11.7247     0.0   58.0189
13875  13821.0   740.000     12.4493  11.7379     0.0   58.0906
13885  13831.0   740.400     12.4629  11.7515     0.0   58.2124
13895  13841.0   740.800     12.4760  11.7646     0.0   58.2935
13905  13851.0   741.200     12.4895  11.7780     0.0   58.3848
13915  13861.0   741.600     12.5034  11.7919     0.0   58.4736
13925  13871.0   742.000     12.5159  11.8045     0.0   58.5804
13935  13881.0   742.400     12.5296  11.8181     0.0   58.6713
13945  13891.0   742.800     12.5422  11.8308     0.0   58.7392
13955  13901.0   743.200     12.5554  11.8439     0.0   58.8281
13965  13911.0   743.600     12.5693  11.8579     0.0   58.9259
13975  13921.0   744.000     12.5822  11.8708     0.0   58.9940
13985  13931.0   744.400     12.5966  11.8851     0.0   59.0807
13995  13941.0   744.800     12.6092  11.8978     0.0   59.1642
14005  13951.0   745.200     12.6228  11.9114     0.0   59.2560
14015  13961.0   745.600     12.6362  11.9248     0.0   59.3442
14025  13971.0   746.000     12.6482  11.9368     0.0   59.3903
14035  13981.0   746.400     12.6621  11.9506     0.0   59.4943
14045  13991.0   746.800     12.6761  11.9646     0.0   59.5574
14055  14001.0   747.200     12.6892  11.9778     0.0   59.6294
14065  14011.0   747.600     12.7030  11.9915     0.0   59.7145
14075  14021.0   748.000     12.7150  12.0036     0.0   59.7453
14085  14031.0   748.400     12.7291  12.0177     0.0   59.8554
14095  14041.0   748.800     12.7429  12.0314     0.0   59.9438
14105  14051.0   749.200     12.7555  12.0441     0.0   59.9928
14115  14061.0   749.600     12.7697  12.0582     0.0   60.0763
14125  14071.0   750.000     12.7826  12.0712     0.0   60.1297
14135  14081.0   750.400     12.7959  12.0844     0.0   60.2034
14145  14091.0   750.800     12.8091  12.0977     0.0   60.2656
14155  14101.0   751.200     12.8227  12.1113     0.0   60.3166
14165  14111.0   751.600     12.8355  12.1241     0.0   60.3891
14175  14121.0   752.000     12.8492  12.1378     0.0   60.4648
14185  14131.0   752.400     12.8623  12.1508     0.0   60.5132
14195  14141.0   752.800     12.8750  12.1636     0.0   60.5595
14205  14151.0   753.200     12.8898  12.1784     0.0   60.6396
14215  14161.0   753.600     12.9024  12.1910     0.0   60.6787
14225  14171.0   754.000     12.9160  12.2046     0.0   60.7363
14235  14181.0   754.400     12.9292  12.2177     0.0   60.8022
14245  14191.0   754.800     12.9427  12.2312     0.0   60.8546
14255  14201.0   755.200     12.9558  12.2443     0.0   60.8877
14265  14211.0   755.600     12.9689  12.2575     0.0   60.9631
14275  14221.0   756.000     12.9829  12.2715     0.0   61.0207
14285  14231.0   756.400     12.9952  12.2837     0.0   61.0566
14295  14241.0   756.800     13.0092  12.2978     0.0   61.1164
14305  14251.0   757.200     13.0230  12.3115     0.0   61.1896
14315  14261.0   757.600     13.0363  12.3248     0.0   61.2076
14325  14271.0   758.000     13.0494  12.3379     0.0   61.2556
14335  14281.0   758.400     13.0625  12.3511     0.0   61.3149
14345  14291.0   758.800     13.0767  12.3653     0.0   61.3529
14355  14301.0   759.200     13.0889  12.3775     0.0   61.4170
14365  14311.0   759.600     13.1033  12.3919     0.0   61.4575
14375  14321.0   760.000     13.1159  12.4044     0.0   61.5070
14385  14331.0   760.400     13.1293  12.4179     0.0   61.5496
14395  14341.0   760.800     13.1430  12.4315     0.0   61.5914
14405  14351.0   761.200     13.1555  12.4441     0.0   61.6417
14415  14361.0   761.600     13.1693  12.4578     0.0   61.6789
14425  14371.0   762.000     13.1825  12.4710     0.0   61.7160
14435  14381.0   762.400     13.1956  12.4841     0.0   61.7592
14445  14391.0   762.800     13.2091  12.4977     0.0   61.8243
14455  14401.0   763.200     13.2220  12.5105     0.0   61.8257
14465  14411.0   763.600     13.2356  12.5241     0.0   61.9002
14475  14421.0   764.000     13.2489  12.5375     0.0   61.9159
14485  14431.0   764.400     13.2622  12.5507     0.0   61.9589
14495  14441.0   764.800     13.2763  12.5649     0.0   62.0005
14505  14451.0   765.200     13.2898  12.5783     0.0   62.0401
14515  14461.0   765.600     13.3023  12.5909     0.0   62.0586
14525  14471.0   766.000     13.3161  12.6046     0.0   62.1140
14535  14481.0   766.400     13.3290  12.6176     0.0   62.1324
14545  14491.0   766.800     13.3426  12.6312     0.0   62.1554
14555  14501.0   767.200     13.3560  12.6446     0.0   62.2044
14565  14511.0   767.600     13.3693  12.6579     0.0   62.2318
14575  14521.0   768.000     13.3823  12.6709     0.0   62.2493
14585  14531.0   768.400     13.3958  12.6844     0.0   62.2957
14595  14541.0   768.800     13.4089  12.6975     0.0   62.3118
14605  14551.0   769.200     13.4225  12.7111     0.0   62.3574
14615  14561.0   769.600     13.4356  12.7241     0.0   62.3863
14625  14571.0   770.000     13.4489  12.7375     0.0   62.3949
14635  14581.0   770.400     13.4626  12.7511     0.0   62.4462
14645  14591.0   770.800     13.4762  12.7648     0.0   62.4779
14655  14601.0   771.200     13.4891  12.7776     0.0   62.4970
14665  14611.0   771.600     13.5027  12.7913     0.0   62.5303
14675  14621.0   772.000     13.5157  12.8042     0.0   62.5378
14685  14631.0   772.400     13.5289  12.8175     0.0   62.5618
14695  14641.0   772.800     13.5426  12.8311     0.0   62.5792
14705  14651.0   773.200     13.5555  12.8441     0.0   62.6337
14715  14661.0   773.600     13.5691  12.8577     0.0   62.6509
14725  14671.0   774.000     13.5827  12.8713     0.0   62.6621
14735  14681.0   774.400     13.5970  12.8855     0.0   62.6761
14745  14691.0   774.800     13.6088  12.8973     0.0   62.7125
14755  14701.0   775.200     13.6218  12.9103     0.0   62.6827
14765  14711.0   775.600     13.6356  12.9241     0.0   62.6835
14775  14721.0   776.000     13.6494  12.9380     0.0   62.5036
14785  14731.0   776.400     13.6632  12.9518     0.0   62.2557
14795  14741.0   776.800     13.6766  12.9652     0.0   62.0772
14805  14751.0   777.200     13.6890  12.9776     0.0   62.0072
14815  14761.0   777.600     13.7024  12.9909     0.0   61.9663
14825  14771.0   778.000     13.7158  13.0043     0.0   61.9538
14835  14781.0   778.400     13.7291  13.0176     0.0   61.9705
14845  14791.0   778.800     13.7423  13.0308     0.0   61.9824
14855  14801.0   779.200     13.7563  13.0448     0.0   62.0154
14865  14811.0   779.600     13.7688  13.0573     0.0   62.0324
14875  14821.0   780.000     13.7825  13.0711     0.0   62.0682
14885  14831.0   780.400     13.7960  13.0846     0.0   62.1056
14895  14841.0   780.800     13.8097  13.0983     0.0   62.1319
14905  14851.0   781.200     13.8232  13.1117     0.0   62.1751
14915  14861.0   781.600     13.8365  13.1250     0.0   62.2187
14925  14871.0   782.000     13.8496  13.1381     0.0   62.2669
14935  14881.0   782.400     13.8623  13.1509     0.0   62.2964
14945  14891.0   782.800     13.8759  13.1645     0.0   62.3377
14955  14901.0   783.200     13.8889  13.1775     0.0   62.3928
14965  14911.0   783.600     13.9032  13.1918     0.0   62.4067
14975  14921.0   784.000     13.9160  13.2046     0.0   62.4388
14985  14931.0   784.400     13.9295  13.2181     0.0   62.4607
14995  14941.0   784.800     13.9429  13.2314     0.0   62.4711
15005  14951.0   785.200     13.9562  13.2448     0.0   62.4863
15015  14961.0   785.600     13.9696  13.2582     0.0   62.4890
15025  14971.0   786.000     13.9835  13.2721     0.0   62.5118
15035  14981.0   786.400     13.9959  13.2845     0.0   62.5104
15045  14991.0   786.800     14.0097  13.2983     0.0   62.5201
15055  15001.0   787.200     14.0223  13.3109     0.0   62.5204
15065  15011.0   787.600     14.0363  13.3248     0.0   62.5276
15075  15021.0   788.000     14.0492  13.3378     0.0   62.5239
15085  15031.0   788.400     14.0617  13.3502     0.0   62.5257
15095  15041.0   788.800     14.0756  13.3642     0.0   62.5321
15105  15051.0   789.200     14.0890  13.3776     0.0   62.5519
15115  15061.0   789.600     14.1018  13.3904     0.0   62.5657
15125  15071.0   790.000     14.1156  13.4042     0.0   62.5800
15135  15081.0   790.400     14.1294  13.4179     0.0   62.6031
15145  15091.0   790.800     14.1424  13.4310     0.0   62.6004
15155  15101.0   791.200     14.1559  13.4444     0.0   62.6265
15165  15111.0   791.600     14.1700  13.4586     0.0   62.6556
15175  15121.0   792.000     14.1824  13.4710     0.0   62.6602
15185  15131.0   792.400     14.1956  13.4842     0.0   62.6692
15195  15141.0   792.800     14.2086  13.4971     0.0   62.6753
15205  15151.0   793.200     14.2221  13.5107     0.0   62.6954
15215  15161.0   793.600     14.2359  13.5244     0.0   62.6919
15225  15171.0   794.000     14.2497  13.5383     0.0   62.7194
15235  15181.0   794.400     14.2629  13.5515     0.0   62.7216
15245  15191.0   794.800     14.2762  13.5647     0.0   62.7600
15255  15201.0   795.200     14.2888  13.5774     0.0   62.7884
15265  15211.0   795.600     14.3020  13.5906     0.0   62.8096
15275  15221.0   796.000     14.3166  13.6052     0.0   62.8141
15285  15231.0   796.400     14.3294  13.6180     0.0   62.8653
15295  15241.0   796.800     14.3418  13.6304     0.0   62.8953
15305  15251.0   797.200     14.3554  13.6439     0.0   62.9233
15315  15261.0   797.600     14.3692  13.6577     0.0   62.9535
15325  15271.0   798.000     14.3827  13.6713     0.0   62.9687
15335  15281.0   798.400     14.3964  13.6850     0.0   62.9982
15345  15291.0   798.800     14.4095  13.6980     0.0   63.0240
15355  15301.0   799.200     14.4225  13.7110     0.0   63.0457
15365  15311.0   799.600     14.4365  13.7250     0.0   63.0993
15375  15321.0   800.000     14.4489  13.7375     0.0   63.1034
15385  15331.0   800.400     14.4621  13.7507     0.0   63.1417
15395  15341.0   800.800     14.4756  13.7641     0.0   63.1650
15405  15351.0   801.200     14.4892  13.7777     0.0   63.1951
15415  15361.0   801.600     14.5035  13.7920     0.0   63.2283
15425  15371.0   802.000     14.5156  13.8042     0.0   63.2374
15435  15381.0   802.400     14.5292  13.8178     0.0   63.2792
15445  15391.0   802.800     14.5422  13.8307     0.0   63.2887
15455  15401.0   803.200     14.5560  13.8445     0.0   63.3263
15465  15411.0   803.600     14.5693  13.8579     0.0   63.3627
15475  15421.0   804.000     14.5817  13.8703     0.0   63.3675
15485  15431.0   804.400     14.5959  13.8845     0.0   63.4165
15495  15441.0   804.800     14.6096  13.8981     0.0   63.3917
15505  15451.0   805.200     14.6230  13.9116     0.0   63.4429
15515  15461.0   805.600     14.6357  13.9243     0.0   63.4868
15525  15471.0   806.000     14.6494  13.9380     0.0   63.5129
15535  15481.0   806.400     14.6627  13.9513     0.0   63.5193
15545  15491.0   806.800     14.6764  13.9650     0.0   63.5783
15555  15501.0   807.200     14.6883  13.9768     0.0   63.5769
15565  15511.0   807.600     14.7024  13.9910     0.0   63.6227
15575  15521.0   808.000     14.7167  14.0053     0.0   63.6660
15585  15531.0   808.400     14.7300  14.0185     0.0   63.6808
15595  15541.0   808.800     14.7424  14.0309     0.0   63.7193
15605  15551.0   809.200     14.7558  14.0444     0.0   63.7294
15615  15561.0   809.600     14.7690  14.0575     0.0   63.7549
15625  15571.0   810.000     14.7825  14.0711     0.0   63.7940
15635  15581.0   810.400     14.7957  14.0843     0.0   63.8325
15645  15591.0   810.800     14.8086  14.0971     0.0   63.8478
15655  15601.0   811.200     14.8222  14.1107     0.0   63.8596
15665  15611.0   811.600     14.8364  14.1250     0.0   63.9133
15675  15621.0   812.000     14.8494  14.1379     0.0   63.9038
15685  15631.0   812.400     14.8628  14.1513     0.0   63.9425
15695  15641.0   812.800     14.8763  14.1648     0.0   63.9731
15705  15651.0   813.200     14.8893  14.1778     0.0   63.9940
15715  15661.0   813.600     14.9029  14.1915     0.0   64.0230
15725  15671.0   814.000     14.9168  14.2054     0.0   64.0455
15735  15681.0   814.400     14.9292  14.2178     0.0   64.0938
15745  15691.0   814.800     14.9425  14.2311     0.0   64.0995
15755  15701.0   815.200     14.9558  14.2444     0.0   64.1304
15765  15711.0   815.600     14.9694  14.2580     0.0   64.1390
15775  15721.0   816.000     14.9826  14.2712     0.0   64.1737
15785  15731.0   816.400     14.9951  14.2837     0.0   64.1889
15795  15741.0   816.800     15.0092  14.2977     0.0   64.2060
15805  15751.0   817.200     15.0232  14.3118     0.0   64.2525
15815  15761.0   817.600     15.0364  14.3250     0.0   64.2318
15825  15771.0   818.000     15.0488  14.3374     0.0   64.2772
15835  15781.0   818.400     15.0631  14.3517     0.0   64.3120
15845  15791.0   818.800     15.0758  14.3644     0.0   64.3253
15855  15801.0   819.200     15.0886  14.3771     0.0   64.3539
15865  15811.0   819.600     15.1029  14.3914     0.0   64.3765
15875  15821.0   820.000     15.1164  14.4050     0.0   64.3933
15885  15831.0   820.400     15.1292  14.4178     0.0   64.4030
15895  15841.0   820.800     15.1414  14.4300     0.0   64.4222
15905  15851.0   821.200     15.1558  14.4444     0.0   64.4505
15915  15861.0   821.600     15.1697  14.4583     0.0   64.4859
15925  15871.0   822.000     15.1822  14.4708     0.0   64.4994
15935  15881.0   822.400     15.1956  14.4842     0.0   64.5042
15945  15891.0   822.800     15.2094  14.4979     0.0   64.5335
15955  15901.0   823.200     15.2228  14.5114     0.0   64.5667
15965  15911.0   823.600     15.2356  14.5242     0.0   64.5823
15975  15921.0   824.000     15.2489  14.5374     0.0   64.5959
15985  15931.0   824.400     15.2626  14.5512     0.0   64.6181
15995  15941.0   824.800     15.2756  14.5642     0.0   64.6398
16005  15951.0   825.200     15.2885  14.5771     0.0   64.6490
16015  15961.0   825.600     15.3028  14.5913     0.0   64.6971
16025  15971.0   826.000     15.3165  14.6050     0.0   64.7214
16035  15981.0   826.400     15.3291  14.6177     0.0   64.7073
16045  15991.0   826.800     15.3430  14.6315     0.0   64.7413
16055  16001.0   827.200     15.3556  14.6442     0.0   64.7730
16065  16011.0   827.600     15.3708  14.6594     0.0   64.8093
16075  16021.0   828.000     15.3826  14.6711     0.0   64.8330
16085  16031.0   828.400     15.3956  14.6842     0.0   64.8400
16095  16041.0   828.800     15.4093  14.6979     0.0   64.8994
16105  16051.0   829.200     15.4224  14.7110     0.0   64.8951
16115  16061.0   829.600     15.4366  14.7252     0.0   64.9108
16125  16071.0   830.000     15.4494  14.7380     0.0   64.9280
16135  16081.0   830.400     15.4621  14.7506     0.0   64.9424
16145  16091.0   830.800     15.4751  14.7637     0.0   64.9516
16155  16101.0   831.200     15.4887  14.7773     0.0   64.9831
16165  16111.0   831.600     15.5028  14.7914     0.0   64.9908
16175  16121.0   832.000     15.5164  14.8050     0.0   65.0261
16185  16131.0   832.400     15.5296  14.8181     0.0   65.0448
16195  16141.0   832.800     15.5427  14.8312     0.0   65.0546
16205  16151.0   833.200     15.5561  14.8446     0.0   65.0905
16215  16161.0   833.600     15.5683  14.8568     0.0   65.1056
16225  16171.0   834.000     15.5826  14.8712     0.0   65.1572
16235  16181.0   834.400     15.5957  14.8843     0.0   65.1829
16245  16191.0   834.800     15.6090  14.8976     0.0   65.1724
16255  16201.0   835.200     15.6231  14.9116     0.0   65.2156
16265  16211.0   835.600     15.6358  14.9243     0.0   65.2148
16275  16221.0   836.000     15.6487  14.9373     0.0   65.2462
16285  16231.0   836.400     15.6626  14.9512     0.0   65.2617
16295  16241.0   836.800     15.6756  14.9642     0.0   65.2672
16305  16251.0   837.200     15.6897  14.9783     0.0   65.3089
16315  16261.0   837.600     15.7025  14.9911     0.0   65.3204
16325  16271.0   838.000     15.7156  15.0042     0.0   65.3299
16335  16281.0   838.400     15.7288  15.0174     0.0   65.3700
16345  16291.0   838.800     15.7422  15.0308     0.0   65.3732
16355  16301.0   839.200     15.7565  15.0451     0.0   65.4244
16365  16311.0   839.600     15.7691  15.0576     0.0   65.3884
16375  16321.0   840.000     15.7830  15.0716     0.0   65.4099
16385  16331.0   840.400     15.7965  15.0850     0.0   65.4556
16395  16341.0   840.800     15.8084  15.0970     0.0   65.4556
16405  16351.0   841.200     15.8229  15.1115     0.0   65.4651
16415  16361.0   841.600     15.8359  15.1245     0.0   65.5008
16425  16371.0   842.000     15.8490  15.1376     0.0   65.5165
16435  16381.0   842.400     15.8633  15.1518     0.0   65.5588
16445  16391.0   842.800     15.8764  15.1650     0.0   65.5702
16455  16401.0   843.200     15.8887  15.1773     0.0   65.5832
16465  16411.0   843.600     15.9019  15.1904     0.0   65.5816
16475  16421.0   844.000     15.9163  15.2049     0.0   65.6228
16485  16431.0   844.400     15.9292  15.2178     0.0   65.6146
16495  16441.0   844.800     15.9425  15.2310     0.0   65.6677
16505  16451.0   845.200     15.9567  15.2453     0.0   65.6913
16515  16461.0   845.600     15.9699  15.2585     0.0   65.6968
16525  16471.0   846.000     15.9823  15.2709     0.0   65.7264
16535  16481.0   846.400     15.9959  15.2845     0.0   65.7446
16545  16491.0   846.800     16.0093  15.2979     0.0   65.7627
16555  16501.0   847.200     16.0229  15.3114     0.0   65.8006
16565  16511.0   847.600     16.0364  15.3250     0.0   65.7928
16575  16521.0   848.000     16.0490  15.3376     0.0   65.8050
16585  16531.0   848.400     16.0628  15.3514     0.0   65.8382
16595  16541.0   848.800     16.0771  15.3657     0.0   65.8721
16605  16551.0   849.200     16.0889  15.3774     0.0   65.8727
16615  16561.0   849.600     16.1021  15.3907     0.0   65.9142
16625  16571.0   850.000     16.1162  15.4047     0.0   65.9312
16635  16581.0   850.400     16.1291  15.4177     0.0   65.9564
16645  16591.0   850.800     16.1430  15.4315     0.0   65.9787
16655  16601.0   851.200     16.1559  15.4445     0.0   65.9972
16665  16611.0   851.600     16.1690  15.4576     0.0   66.0137
16675  16621.0   852.000     16.1827  15.4712     0.0   66.0262
16685  16631.0   852.400     16.1960  15.4846     0.0   66.0567
16695  16641.0   852.800     16.2092  15.4978     0.0   66.0665
16705  16651.0   853.200     16.2227  15.5112     0.0   66.0987
16715  16661.0   853.600     16.2366  15.5252     0.0   66.1051
16725  16671.0   854.000     16.2497  15.5382     0.0   66.1187
16735  16681.0   854.400     16.2620  15.5505     0.0   66.1109
16745  16691.0   854.800     16.2760  15.5646     0.0   66.1653
16755  16701.0   855.200     16.2894  15.5780     0.0   66.1856
16765  16711.0   855.600     16.3027  15.5913     0.0   66.2306
16775  16721.0   856.000     16.3155  15.6041     0.0   66.2047
16785  16731.0   856.400     16.3298  15.6184     0.0   66.2477
16795  16741.0   856.800     16.3425  15.6311     0.0   66.2598
16805  16751.0   857.200     16.3563  15.6449     0.0   66.3020
16815  16761.0   857.600     16.3694  15.6580     0.0   66.3057
16825  16771.0   858.000     16.3826  15.6712     0.0   66.3359
16835  16781.0   858.400     16.3968  15.6854     0.0   66.3466
16845  16791.0   858.800     16.4087  15.6972     0.0   66.3820
16855  16801.0   859.200     16.4226  15.7111     0.0   66.3825
16865  16811.0   859.600     16.4351  15.7236     0.0   66.3830
16875  16821.0   860.000     16.4489  15.7375     0.0   66.4089
16885  16831.0   860.400     16.4626  15.7512     0.0   66.4464
16895  16841.0   860.800     16.4763  15.7649     0.0   66.4594
16905  16851.0   861.200     16.4885  15.7770     0.0   66.4692
16915  16861.0   861.600     16.5021  15.7907     0.0   66.5028
16925  16871.0   862.000     16.5160  15.8046     0.0   66.5386
16935  16881.0   862.400     16.5300  15.8186     0.0   66.5536
16945  16891.0   862.800     16.5428  15.8314     0.0   66.5782
16955  16901.0   863.200     16.5550  15.8436     0.0   66.5597
16965  16911.0   863.600     16.5700  15.8585     0.0   66.6106
16975  16921.0   864.000     16.5832  15.8718     0.0   66.6330
16985  16931.0   864.400     16.5957  15.8843     0.0   66.6225
16995  16941.0   864.800     16.6094  15.8979     0.0   66.6553
17005  16951.0   865.200     16.6229  15.9115     0.0   66.6771
17015  16961.0   865.600     16.6361  15.9246     0.0   66.6967
17025  16971.0   866.000     16.6498  15.9384     0.0   66.7265
17035  16981.0   866.400     16.6623  15.9509     0.0   66.7209
17045  16991.0   866.800     16.6763  15.9649     0.0   66.7622
17055  17001.0   867.200     16.6886  15.9771     0.0   66.7704
17065  17011.0   867.600     16.7026  15.9912     0.0   66.7735
17075  17021.0   868.000     16.7159  16.0045     0.0   66.8180
17085  17031.0   868.400     16.7284  16.0170     0.0   66.8334
17095  17041.0   868.800     16.7424  16.0310     0.0   66.8628
17105  17051.0   869.200     16.7563  16.0449     0.0   66.8719
17115  17061.0   869.600     16.7694  16.0579     0.0   66.8917
17125  17071.0   870.000     16.7820  16.0706     0.0   66.9003
17135  17081.0   870.400     16.7958  16.0843     0.0   66.9205
17145  17091.0   870.800     16.8103  16.0988     0.0   66.9501
17155  17101.0   871.200     16.8227  16.1112     0.0   66.9590
17165  17111.0   871.600     16.8359  16.1244     0.0   66.9809
17175  17121.0   872.000     16.8499  16.1385     0.0   66.9989
17185  17131.0   872.400     16.8626  16.1511     0.0   67.0491
17195  17141.0   872.800     16.8758  16.1643     0.0   67.0440
17205  17151.0   873.200     16.8894  16.1780     0.0   67.0470
17215  17161.0   873.600     16.9027  16.1913     0.0   67.0727
17225  17171.0   874.000     16.9157  16.2043     0.0   67.0779
17235  17181.0   874.400     16.9295  16.2181     0.0   67.1172
17245  17191.0   874.800     16.9423  16.2309     0.0   67.1425
17255  17201.0   875.200     16.9551  16.2437     0.0   67.1547
17265  17211.0   875.600     16.9688  16.2574     0.0   67.1633
17275  17221.0   876.000     16.9825  16.2710     0.0   67.1866
17285  17231.0   876.400     16.9967  16.2853     0.0   67.1881
17295  17241.0   876.800     17.0090  16.2976     0.0   67.2258
17305  17251.0   877.200     17.0222  16.3108     0.0   67.2382
17315  17261.0   877.600     17.0360  16.3246     0.0   67.2675
17325  17271.0   878.000     17.0490  16.3376     0.0   67.2626
17335  17281.0   878.400     17.0625  16.3511     0.0   67.2983
17345  17291.0   878.800     17.0769  16.3654     0.0   67.3132
17355  17301.0   879.200     17.0899  16.3785     0.0   67.3655
17365  17311.0   879.600     17.1032  16.3918     0.0   67.3690
17375  17321.0   880.000     17.1155  16.4040     0.0   67.3816
17385  17331.0   880.400     17.1300  16.4185     0.0   67.4106
17395  17341.0   880.800     17.1434  16.4320     0.0   67.4433
17405  17351.0   881.200     17.1560  16.4446     0.0   67.4526
17415  17361.0   881.600     17.1698  16.4583     0.0   67.4688
17425  17371.0   882.000     17.1830  16.4716     0.0   67.4694
17435  17381.0   882.400     17.1955  16.4841     0.0   67.4928
17445  17391.0   882.800     17.2093  16.4979     0.0   67.4916
17455  17401.0   883.200     17.2226  16.5112     0.0   67.5260
17465  17411.0   883.600     17.2365  16.5251     0.0   67.5767
17475  17421.0   884.000     17.2493  16.5379     0.0   67.5576
17485  17431.0   884.400     17.2630  16.5515     0.0   67.5967
17495  17441.0   884.800     17.2759  16.5645     0.0   67.6021
17505  17451.0   885.200     17.2891  16.5776     0.0   67.6123
17515  17461.0   885.600     17.3023  16.5908     0.0   67.6390
17525  17471.0   886.000     17.3164  16.6049     0.0   67.6822
17535  17481.0   886.400     17.3299  16.6185     0.0   67.6892
17545  17491.0   886.800     17.3414  16.6300     0.0   67.6765
17555  17501.0   887.200     17.3552  16.6438     0.0   67.7302
17565  17511.0   887.600     17.3693  16.6578     0.0   67.7277
17575  17521.0   888.000     17.3829  16.6715     0.0   67.7282
17585  17531.0   888.400     17.3970  16.6856     0.0   67.7530
17595  17541.0   888.800     17.4094  16.6979     0.0   67.7973
17605  17551.0   889.200     17.4228  16.7114     0.0   67.7970
17615  17561.0   889.600     17.4356  16.7242     0.0   67.8227
17625  17571.0   890.000     17.4501  16.7387     0.0   67.8094
17635  17581.0   890.400     17.4625  16.7510     0.0   67.8431
17645  17591.0   890.800     17.4765  16.7651     0.0   67.8765
17655  17601.0   891.200     17.4893  16.7778     0.0   67.8746
17665  17611.0   891.600     17.5023  16.7909     0.0   67.9175
17675  17621.0   892.000     17.5161  16.8047     0.0   67.9462
17685  17631.0   892.400     17.5294  16.8180     0.0   67.9671
17695  17641.0   892.800     17.5432  16.8318     0.0   67.9754
17705  17651.0   893.200     17.5558  16.8443     0.0   67.9910
17715  17661.0   893.600     17.5690  16.8576     0.0   67.9938
17725  17671.0   894.000     17.5831  16.8717     0.0   68.0405
17735  17681.0   894.400     17.5964  16.8849     0.0   68.0442
17745  17691.0   894.800     17.6101  16.8986     0.0   68.0461
17755  17701.0   895.200     17.6219  16.9105     0.0   68.0741
17765  17711.0   895.600     17.6366  16.9252     0.0   68.1173
17775  17721.0   896.000     17.6497  16.9383     0.0   68.1410
17785  17731.0   896.400     17.6624  16.9510     0.0   68.1490
17795  17741.0   896.800     17.6750  16.9635     0.0   68.1723
17805  17751.0   897.200     17.6890  16.9775     0.0   68.1680
17815  17761.0   897.600     17.7033  16.9919     0.0   68.1865
17825  17771.0   898.000     17.7159  17.0045     0.0   68.1929
17835  17781.0   898.400     17.7297  17.0183     0.0   68.2297
17845  17791.0   898.800     17.7435  17.0321     0.0   68.2536
17855  17801.0   899.200     17.7558  17.0444     0.0   68.2547
17865  17811.0   899.600     17.7695  17.0581     0.0   68.3186
17875  17821.0   900.000     17.7822  17.0707     0.0   68.3007
17885  17831.0   900.400     17.7963  17.0849     0.0   68.3306
17895  17841.0   900.800     17.8090  17.0976     0.0   68.3388
17905  17851.0   901.200     17.8226  17.1111     0.0   68.3535
17915  17861.0   901.600     17.8361  17.1246     0.0   68.3690
17925  17871.0   902.000     17.8491  17.1376     0.0   68.3864
17935  17881.0   902.400     17.8620  17.1506     0.0   68.3914
17945  17891.0   902.800     17.8763  17.1648     0.0   68.4283
17955  17901.0   903.200     17.8889  17.1775     0.0   68.4393
17965  17911.0   903.600     17.9034  17.1919     0.0   68.4659
17975  17921.0   904.000     17.9154  17.2040     0.0   68.4612
17985  17931.0   904.400     17.9291  17.2177     0.0   68.5093
17995  17941.0   904.800     17.9426  17.2312     0.0   68.4960
18005  17951.0   905.200     17.9563  17.2449     0.0   68.5607
18015  17961.0   905.600     17.9694  17.2580     0.0   68.5498
18025  17971.0   906.000     17.9825  17.2711     0.0   68.5709
18035  17981.0   906.400     17.9966  17.2852     0.0   68.5831
18045  17991.0   906.800     18.0095  17.2980     0.0   68.6185
18055  18001.0   907.200     18.0218  17.3104     0.0   68.6139
18065  18011.0   907.600     18.0365  17.3251     0.0   68.6492
18075  18021.0   908.000     18.0496  17.3381     0.0   68.6524
18085  18031.0   908.400     18.0622  17.3507     0.0   68.6874
18095  18041.0   908.800     18.0760  17.3645     0.0   68.6969
18105  18051.0   909.200     18.0901  17.3786     0.0   68.6913
18115  18061.0   909.600     18.1027  17.3913     0.0   68.7018
18125  18071.0   910.000     18.1160  17.4046     0.0   68.7328
18135  18081.0   910.400     18.1294  17.4180     0.0   68.7284
18145  18091.0   910.800     18.1435  17.4321     0.0   68.7632
18155  18101.0   911.200     18.1552  17.4438     0.0   68.7713
18165  18111.0   911.600     18.1689  17.4575     0.0   68.8017
18175  18121.0   912.000     18.1838  17.4724     0.0   68.8345
18185  18131.0   912.400     18.1973  17.4859     0.0   68.8700
18195  18141.0   912.800     18.2101  17.4987     0.0   68.8934
18205  18151.0   913.200     18.2226  17.5112     0.0   68.9030
18215  18161.0   913.600     18.2352  17.5238     0.0   68.8940
18225  18171.0   914.000     18.2494  17.5380     0.0   68.9107
18235  18181.0   914.400     18.2627  17.5513     0.0   68.9349
18245  18191.0   914.800     18.2755  17.5640     0.0   68.9346
18255  18201.0   915.200     18.2886  17.5772     0.0   68.9409
18265  18211.0   915.600     18.3026  17.5911     0.0   68.9845
18275  18221.0   916.000     18.3158  17.6044     0.0   68.9981
18285  18231.0   916.400     18.3286  17.6171     0.0   68.9993
18295  18241.0   916.800     18.3428  17.6314     0.0   69.0535
18305  18251.0   917.200     18.3572  17.6457     0.0   69.0445
18315  18261.0   917.600     18.3688  17.6573     0.0   69.0766
18325  18271.0   918.000     18.3829  17.6715     0.0   69.1170
18335  18281.0   918.400     18.3961  17.6847     0.0   69.1404
18345  18291.0   918.800     18.4086  17.6971     0.0   69.1362
18355  18301.0   919.200     18.4228  17.7113     0.0   69.1620
18365  18311.0   919.600     18.4369  17.7255     0.0   69.1675
18375  18321.0   920.000     18.4492  17.7377     0.0   69.1701
18385  18331.0   920.400     18.4622  17.7508     0.0   69.1802
18395  18341.0   920.800     18.4757  17.7643     0.0   69.2067
18405  18351.0   921.200     18.4897  17.7783     0.0   69.2179
18415  18361.0   921.600     18.5028  17.7913     0.0   69.2231
18425  18371.0   922.000     18.5159  17.8044     0.0   69.2387
18435  18381.0   922.400     18.5296  17.8181     0.0   69.2722
18445  18391.0   922.800     18.5427  17.8313     0.0   69.2942
18455  18401.0   923.200     18.5556  17.8441     0.0   69.2963
18465  18411.0   923.600     18.5683  17.8569     0.0   69.3024
18475  18421.0   924.000     18.5826  17.8712     0.0   69.3367
18485  18431.0   924.400     18.5953  17.8838     0.0   69.3440
18495  18441.0   924.800     18.6086  17.8971     0.0   69.3755
18505  18451.0   925.200     18.6217  17.9103     0.0   69.3871
18515  18461.0   925.600     18.6359  17.9244     0.0   69.3935
18525  18471.0   926.000     18.6493  17.9378     0.0   69.4300
18535  18481.0   926.400     18.6619  17.9505     0.0   69.4386
18545  18491.0   926.800     18.6750  17.9636     0.0   69.4473
18555  18501.0   927.200     18.6881  17.9767     0.0   69.4680
18565  18511.0   927.600     18.7021  17.9907     0.0   69.4834
18575  18521.0   928.000     18.7155  18.0041     0.0   69.5241
18585  18531.0   928.400     18.7287  18.0173     0.0   69.5226
18595  18541.0   928.800     18.7417  18.0303     0.0   69.5224
18605  18551.0   929.200     18.7561  18.0447     0.0   69.5307
18615  18561.0   929.600     18.7686  18.0572     0.0   69.5573
18625  18571.0   930.000     18.7823  18.0709     0.0   69.5804
18635  18581.0   930.400     18.7951  18.0837     0.0   69.6067
18645  18591.0   930.800     18.8089  18.0974     0.0   69.6109
18655  18601.0   931.200     18.8223  18.1108     0.0   69.6313
18665  18611.0   931.600     18.8354  18.1239     0.0   69.6303
18675  18621.0   932.000     18.8501  18.1386     0.0   69.6964
18685  18631.0   932.400     18.8623  18.1509     0.0   69.6939
18695  18641.0   932.800     18.8759  18.1644     0.0   69.6935
18705  18651.0   933.200     18.8892  18.1777     0.0   69.7247
18715  18661.0   933.600     18.9024  18.1910     0.0   69.7417
18725  18671.0   934.000     18.9163  18.2048     0.0   69.7553
18735  18681.0   934.400     18.9293  18.2179     0.0   69.7711
18745  18691.0   934.800     18.9423  18.2309     0.0   69.7917
18755  18701.0   935.200     18.9550  18.2436     0.0   69.7758
18765  18711.0   935.600     18.9690  18.2576     0.0   69.7887
18775  18721.0   936.000     18.9823  18.2708     0.0   69.8192
18785  18731.0   936.400     18.9948  18.2834     0.0   69.8377
18795  18741.0   936.800     19.0091  18.2977     0.0   69.8772
18805  18751.0   937.200     19.0229  18.3114     0.0   69.9013
18815  18761.0   937.600     19.0356  18.3241     0.0   69.9031
18825  18771.0   938.000     19.0483  18.3369     0.0   69.9044
18835  18781.0   938.400     19.0621  18.3506     0.0   69.9064
18845  18791.0   938.800     19.0761  18.3646     0.0   69.9427
18855  18801.0   939.200     19.0891  18.3777     0.0   69.9413
18865  18811.0   939.600     19.1023  18.3908     0.0   69.9578
18875  18821.0   940.000     19.1184  18.4070     0.0   69.9715
18885  18831.0   940.400     19.1282  18.4168     0.0   70.0155
18895  18841.0   940.800     19.1426  18.4312     0.0   70.0141
18905  18851.0   941.200     19.1569  18.4455     0.0   70.0583
18915  18861.0   941.600     19.1689  18.4575     0.0   70.0420
18925  18871.0   942.000     19.1818  18.4704     0.0   70.0620
18935  18881.0   942.400     19.1956  18.4842     0.0   70.0775
18945  18891.0   942.800     19.2086  18.4971     0.0   70.0767
18955  18901.0   943.200     19.2239  18.5125     0.0   70.1154
18965  18911.0   943.600     19.2349  18.5235     0.0   70.1115
18975  18921.0   944.000     19.2498  18.5383     0.0   70.1377
18985  18931.0   944.400     19.2624  18.5510     0.0   70.1517
18995  18941.0   944.800     19.2760  18.5645     0.0   70.1591
19005  18951.0   945.200     19.2882  18.5767     0.0   70.1829
19015  18961.0   945.600     19.3019  18.5904     0.0   70.1926
19025  18971.0   946.000     19.3159  18.6044     0.0   70.2108
19035  18981.0   946.400     19.3290  18.6176     0.0   70.2266
19045  18991.0   946.800     19.3433  18.6318     0.0   70.2490
19055  19001.0   947.200     19.3553  18.6439     0.0   70.2430
19065  19011.0   947.600     19.3700  18.6586     0.0   70.2725
19075  19021.0   948.000     19.3833  18.6719     0.0   70.3092
19085  19031.0   948.400     19.3959  18.6844     0.0   70.2976
19095  19041.0   948.800     19.4090  18.6975     0.0   70.3000
19105  19051.0   949.200     19.4223  18.7109     0.0   70.3245
19115  19061.0   949.600     19.4357  18.7243     0.0   70.3508
19125  19071.0   950.000     19.4493  18.7378     0.0   70.3476
19135  19081.0   950.400     19.4630  18.7516     0.0   70.3604
19145  19091.0   950.800     19.4764  18.7649     0.0   70.4085
19155  19101.0   951.200     19.4893  18.7778     0.0   70.4124
19165  19111.0   951.600     19.5022  18.7907     0.0   70.4147
19175  19121.0   952.000     19.5160  18.8046     0.0   70.4467
19185  19131.0   952.400     19.5292  18.8177     0.0   70.4589
19195  19141.0   952.800     19.5426  18.8312     0.0   70.4555
19205  19151.0   953.200     19.5556  18.8442     0.0   70.4864
19215  19161.0   953.600     19.5696  18.8581     0.0   70.4674
19225  19171.0   954.000     19.5825  18.8711     0.0   70.5072
19235  19181.0   954.400     19.5964  18.8849     0.0   70.5091
19245  19191.0   954.800     19.6081  18.8967     0.0   70.5237
19255  19201.0   955.200     19.6226  18.9112     0.0   70.5482
19265  19211.0   955.600     19.6372  18.9257     0.0   70.5886
19275  19221.0   956.000     19.6491  18.9377     0.0   70.5863
19285  19231.0   956.400     19.6636  18.9522     0.0   70.5890
19295  19241.0   956.800     19.6755  18.9641     0.0   70.5999
19305  19251.0   957.200     19.6896  18.9781     0.0   70.6321
19315  19261.0   957.600     19.7028  18.9914     0.0   70.6704
19325  19271.0   958.000     19.7163  19.0049     0.0   70.6605
19335  19281.0   958.400     19.7284  19.0170     0.0   70.6746
19345  19291.0   958.800     19.7420  19.0306     0.0   70.6922
19355  19301.0   959.200     19.7555  19.0441     0.0   70.7027
19365  19311.0   959.600     19.7691  19.0577     0.0   70.7399
19375  19321.0   960.000     19.7822  19.0708     0.0   70.7240
19385  19331.0   960.400     19.7957  19.0842     0.0   70.7727
19395  19341.0   960.800     19.8095  19.0981     0.0   70.7902
19405  19351.0   961.200     19.8235  19.1120     0.0   70.7452
19415  19361.0   961.600     19.8362  19.1247     0.0   70.8070
19425  19371.0   962.000     19.8475  19.1360     0.0   70.8116
19435  19381.0   962.400     19.8622  19.1507     0.0   70.8441
19445  19391.0   962.800     19.8757  19.1642     0.0   70.8255
19455  19401.0   963.200     19.8887  19.1773     0.0   70.8561
19465  19411.0   963.600     19.9033  19.1919     0.0   70.8644
19475  19421.0   964.000     19.9152  19.2038     0.0   70.8790
19485  19431.0   964.400     19.9291  19.2177     0.0   70.8986
19495  19441.0   964.800     19.9440  19.2326     0.0   70.8920
19505  19451.0   965.200     19.9558  19.2443     0.0   70.9396
19515  19461.0   965.600     19.9694  19.2579     0.0   70.9020
19525  19471.0   966.000     19.9827  19.2713     0.0   70.9237
19535  19481.0   966.400     19.9959  19.2845     0.0   70.9578
19545  19491.0   966.800     20.0101  19.2987     0.0   70.9473
19555  19501.0   967.200     20.0226  19.3112     0.0   70.9780
19565  19511.0   967.600     20.0367  19.3253     0.0   70.9976
19575  19521.0   968.000     20.0488  19.3373     0.0   70.9988
19585  19531.0   968.400     20.0627  19.3512     0.0   71.0258
19595  19541.0   968.800     20.0760  19.3646     0.0   71.0568
19605  19551.0   969.200     20.0900  19.3786     0.0   71.0615
19615  19561.0   969.600     20.1026  19.3912     0.0   71.0680
19625  19571.0   970.000     20.1158  19.4043     0.0   71.1118
19635  19581.0   970.400     20.1285  19.4170     0.0   71.1048
19645  19591.0   970.800     20.1424  19.4310     0.0   71.1453
19655  19601.0   971.200     20.1562  19.4447     0.0   71.1322
19665  19611.0   971.600     20.1683  19.4569     0.0   71.1475
19675  19621.0   972.000     20.1822  19.4708     0.0   71.1608
19685  19631.0   972.400     20.1959  19.4845     0.0   71.1740
19695  19641.0   972.800     20.2089  19.4975     0.0   71.1797
19705  19651.0   973.200     20.2222  19.5108     0.0   71.1885
19715  19661.0   973.600     20.2356  19.5241     0.0   71.2283
19725  19671.0   974.000     20.2478  19.5363     0.0   71.2194
19735  19681.0   974.400     20.2624  19.5510     0.0   71.2492
19745  19691.0   974.800     20.2756  19.5642     0.0   71.2666
19755  19701.0   975.200     20.2905  19.5791     0.0   71.2942
19765  19711.0   975.600     20.3029  19.5914     0.0   71.2859
19775  19721.0   976.000     20.3155  19.6041     0.0   71.3013
19785  19731.0   976.400     20.3291  19.6176     0.0   71.3022
19795  19741.0   976.800     20.3430  19.6316     0.0   71.3393
19805  19751.0   977.200     20.3561  19.6446     0.0   71.3156
19815  19761.0   977.600     20.3689  19.6575     0.0   71.3378
19825  19771.0   978.000     20.3827  19.6713     0.0   71.3312
19835  19781.0   978.400     20.3961  19.6847     0.0   71.3715
19845  19791.0   978.800     20.4089  19.6974     0.0   71.3694
19855  19801.0   979.200     20.4213  19.7099     0.0   71.4104
19865  19811.0   979.600     20.4354  19.7240     0.0   71.4490
19875  19821.0   980.000     20.4495  19.7381     0.0   71.4450
19885  19831.0   980.400     20.4626  19.7512     0.0   71.4327
19895  19841.0   980.800     20.4763  19.7648     0.0   71.4578
19905  19851.0   981.200     20.4888  19.7774     0.0   71.4677
19915  19861.0   981.600     20.5027  19.7913     0.0   71.4643
19925  19871.0   982.000     20.5159  19.8045     0.0   71.4925
19935  19881.0   982.400     20.5293  19.8178     0.0   71.4936
19945  19891.0   982.800     20.5427  19.8313     0.0   71.5421
19955  19901.0   983.200     20.5553  19.8439     0.0   71.5302
19965  19911.0   983.600     20.5700  19.8585     0.0   71.5533
19975  19921.0   984.000     20.5826  19.8712     0.0   71.5575
19985  19931.0   984.400     20.5955  19.8841     0.0   71.5804
19995  19941.0   984.800     20.6090  19.8976     0.0   71.5750
20005  19951.0   985.200     20.6216  19.9102     0.0   71.5899
20015  19961.0   985.600     20.6357  19.9242     0.0   71.6056
20025  19971.0   986.000     20.6495  19.9380     0.0   71.6128
20035  19981.0   986.400     20.6628  19.9514     0.0   71.6256
20045  19991.0   986.800     20.6759  19.9645     0.0   71.6637
20055  20001.0   987.200     20.6897  19.9783     0.0   71.6443
20065  20011.0   987.600     20.7032  19.9918     0.0   71.6697
20075  20021.0   988.000     20.7154  20.0040     0.0   71.6472
20085  20031.0   988.400     20.7292  20.0178     0.0   71.6860
20095  20041.0   988.800     20.7429  20.0315     0.0   71.7116
20105  20051.0   989.200     20.7554  20.0440     0.0   71.7362
20115  20061.0   989.600     20.7692  20.0578     0.0   71.7468
20125  20071.0   990.000     20.7827  20.0713     0.0   71.7509
20135  20081.0   990.400     20.7956  20.0841     0.0   71.7977
20145  20091.0   990.800     20.8088  20.0974     0.0   71.7854
20155  20101.0   991.200     20.8223  20.1109     0.0   71.7821
20165  20111.0   991.600     20.8357  20.1243     0.0   71.8184
20175  20121.0   992.000     20.8483  20.1369     0.0   71.7921
20185  20131.0   992.400     20.8628  20.1513     0.0   71.8377
20195  20141.0   992.800     20.8765  20.1651     0.0   71.8592
20205  20151.0   993.200     20.8901  20.1787     0.0   71.8638
20215  20161.0   993.600     20.9020  20.1906     0.0   71.8777
20225  20171.0   994.000     20.9152  20.2038     0.0   71.8483
20235  20181.0   994.400     20.9288  20.2174     0.0   71.8581
20245  20191.0   994.800     20.9433  20.2319     0.0   71.8918
20255  20201.0   995.200     20.9561  20.2447     0.0   71.9058
20265  20211.0   995.600     20.9691  20.2577     0.0   71.9327
20275  20221.0   996.000     20.9822  20.2708     0.0   71.9278
20285  20231.0   996.400     20.9959  20.2845     0.0   71.9481
20295  20241.0   996.800     21.0102  20.2988     0.0   71.9716
20305  20251.0   997.200     21.0223  20.3109     0.0   71.9728
20315  20261.0   997.600     21.0351  20.3237     0.0   71.9861
20325  20271.0   998.000     21.0492  20.3378     0.0   72.0160
20335  20281.0   998.400     21.0627  20.3513     0.0   72.0134
20345  20291.0   998.800     21.0757  20.3642     0.0   72.0225
20355  20301.0   999.200     21.0888  20.3774     0.0   72.0302
20365  20311.0   999.600     21.1027  20.3912     0.0   72.0791
20375  20321.0  1000.000     21.1164  20.4050     0.0   72.1006
20385  20331.0  1000.400     21.1292  20.4178     0.0   72.0730
20395  20341.0  1000.800     21.1426  20.4312     0.0   72.0746
20405  20351.0  1001.200     21.1553  20.4439     0.0   72.0574
20415  20361.0  1001.600     21.1681  20.4567     0.0   72.0945
20425  20371.0  1002.000     21.1815  20.4700     0.0   72.1317
20435  20381.0  1002.400     21.1946  20.4832     0.0   72.1285
20445  20391.0  1002.800     21.2087  20.4973     0.0   72.1405
20455  20401.0  1003.200     21.2220  20.5105     0.0   72.1657
20465  20411.0  1003.600     21.2368  20.5253     0.0   72.1644
20475  20421.0  1004.000     21.2498  20.5384     0.0   72.2045
20485  20431.0  1004.400     21.2619  20.5504     0.0   72.2081
20495  20441.0  1004.800     21.2760  20.5646     0.0   72.2137
20505  20451.0  1005.200     21.2885  20.5771     0.0   72.2072
20515  20461.0  1005.600     21.3037  20.5922     0.0   72.1970
20525  20471.0  1006.000     21.3154  20.6040     0.0   72.2303
20535  20481.0  1006.400     21.3291  20.6177     0.0   72.2504
20545  20491.0  1006.800     21.3416  20.6302     0.0   72.2613
20555  20501.0  1007.200     21.3561  20.6447     0.0   72.2875
20565  20511.0  1007.600     21.3681  20.6566     0.0   72.2836
20575  20521.0  1008.000     21.3831  20.6717     0.0   72.3130
20585  20531.0  1008.400     21.3958  20.6843     0.0   72.3153
20595  20541.0  1008.800     21.4084  20.6970     0.0   72.3402
20605  20551.0  1009.200     21.4221  20.7107     0.0   72.3278
20615  20561.0  1009.600     21.4358  20.7243     0.0   72.3356
20625  20571.0  1010.000     21.4499  20.7385     0.0   72.3899
20635  20581.0  1010.400     21.4625  20.7511     0.0   72.3865
20645  20591.0  1010.800     21.4757  20.7642     0.0   72.3865
20655  20601.0  1011.200     21.4885  20.7771     0.0   72.3846
20665  20611.0  1011.600     21.5024  20.7910     0.0   72.3848
20675  20621.0  1012.000     21.5153  20.8038     0.0   72.4052
20685  20631.0  1012.400     21.5296  20.8182     0.0   72.4408
20695  20641.0  1012.800     21.5423  20.8308     0.0   72.4417
20705  20651.0  1013.200     21.5563  20.8448     0.0   72.4720
20715  20661.0  1013.600     21.5694  20.8580     0.0   72.4892
20725  20671.0  1014.000     21.5837  20.8723     0.0   72.5200
20735  20681.0  1014.400     21.5958  20.8843     0.0   72.4944
20745  20691.0  1014.800     21.6091  20.8977     0.0   72.4993
20755  20701.0  1015.200     21.6222  20.9108     0.0   72.5570
20765  20711.0  1015.600     21.6368  20.9253     0.0   72.5380
20775  20721.0  1016.000     21.6493  20.9379     0.0   72.5603
20785  20731.0  1016.400     21.6627  20.9513     0.0   72.5815
20795  20741.0  1016.800     21.6760  20.9646     0.0   72.5673
20805  20751.0  1017.200     21.6895  20.9780     0.0   72.6053
20815  20761.0  1017.600     21.7027  20.9913     0.0   72.6297
20825  20771.0  1018.000     21.7165  21.0051     0.0   72.6376
20835  20781.0  1018.400     21.7302  21.0187     0.0   72.6547
20845  20791.0  1018.800     21.7410  21.0296     0.0   72.6396
20855  20801.0  1019.200     21.7558  21.0444     0.0   72.6482
20865  20811.0  1019.600     21.7691  21.0577     0.0   72.6610
20875  20821.0  1020.000     21.7822  21.0707     0.0   72.6803
20885  20831.0  1020.400     21.7958  21.0844     0.0   72.7318
20895  20841.0  1020.800     21.8097  21.0982     0.0   72.7012
20905  20851.0  1021.200     21.8225  21.1111     0.0   72.7267
20915  20861.0  1021.600     21.8354  21.1239     0.0   72.7284
20925  20871.0  1022.000     21.8497  21.1382     0.0   72.7677
20935  20881.0  1022.400     21.8625  21.1510     0.0   72.7543
20945  20891.0  1022.800     21.8754  21.1640     0.0   72.7635
20955  20901.0  1023.200     21.8900  21.1786     0.0   72.7794
20965  20911.0  1023.600     21.9042  21.1928     0.0   72.7849
20975  20921.0  1024.000     21.9157  21.2043     0.0   72.8131
20985  20931.0  1024.400     21.9291  21.2177     0.0   72.8047
20995  20941.0  1024.800     21.9433  21.2319     0.0   72.8225
21005  20951.0  1025.200     21.9555  21.2441     0.0   72.8160
21015  20961.0  1025.600     21.9686  21.2572     0.0   72.8279
21025  20971.0  1026.000     21.9829  21.2715     0.0   72.8734
21035  20981.0  1026.400     21.9967  21.2853     0.0   72.8940
21045  20991.0  1026.800     22.0099  21.2984     0.0   72.9180
21055  21001.0  1027.200     22.0215  21.3101     0.0   72.8924
21065  21011.0  1027.600     22.0358  21.3244     0.0   72.9060
21075  21021.0  1028.000     22.0489  21.3374     0.0   72.9364
21085  21031.0  1028.400     22.0630  21.3516     0.0   72.9409
21095  21041.0  1028.800     22.0771  21.3657     0.0   72.9477
21105  21051.0  1029.200     22.0874  21.3760     0.0   72.9387
21115  21061.0  1029.600     22.1031  21.3917     0.0   72.9583
21125  21071.0  1030.000     22.1155  21.4040     0.0   72.9911
21135  21081.0  1030.400     22.1312  21.4197     0.0   72.9927
21145  21091.0  1030.800     22.1422  21.4308     0.0   73.0214
21155  21101.0  1031.200     22.1566  21.4451     0.0   73.0079
21165  21111.0  1031.600     22.1685  21.4571     0.0   73.0267
21175  21121.0  1032.000     22.1831  21.4717     0.0   73.0704
21185  21131.0  1032.400     22.1959  21.4845     0.0   73.0969
21195  21141.0  1032.800     22.2103  21.4989     0.0   73.0770
21205  21151.0  1033.200     22.2225  21.5111     0.0   73.1063
21215  21161.0  1033.600     22.2355  21.5241     0.0   73.1140
21225  21171.0  1034.000     22.2507  21.5392     0.0   73.1445
21235  21181.0  1034.400     22.2614  21.5500     0.0   73.0650
21245  21191.0  1034.800     22.2767  21.5653     0.0   73.1309
21255  21201.0  1035.200     22.2890  21.5776     0.0   73.1337
21265  21211.0  1035.600     22.3024  21.5910     0.0   73.1740
21275  21221.0  1036.000     22.3157  21.6042     0.0   73.1885
21285  21231.0  1036.400     22.3290  21.6176     0.0   73.1868
21295  21241.0  1036.800     22.3432  21.6317     0.0   73.1853
21305  21251.0  1037.200     22.3552  21.6437     0.0   73.1835
21315  21261.0  1037.600     22.3693  21.6579     0.0   73.1968
21325  21271.0  1038.000     22.3828  21.6713     0.0   73.2237
21335  21281.0  1038.400     22.3964  21.6850     0.0   73.2274
21345  21291.0  1038.800     22.4087  21.6973     0.0   73.2588
21355  21301.0  1039.200     22.4226  21.7111     0.0   73.2587
21365  21311.0  1039.600     22.4364  21.7250     0.0   73.2810
21375  21321.0  1040.000     22.4491  21.7376     0.0   73.2654
21385  21331.0  1040.400     22.4629  21.7515     0.0   73.2814
21395  21341.0  1040.800     22.4759  21.7644     0.0   73.2874
21405  21351.0  1041.200     22.4895  21.7780     0.0   73.2813
21415  21361.0  1041.600     22.5019  21.7904     0.0   73.2972
21425  21371.0  1042.000     22.5155  21.8040     0.0   73.3292
21435  21381.0  1042.400     22.5295  21.8181     0.0   73.3567
21445  21391.0  1042.800     22.5436  21.8321     0.0   73.3625
21455  21401.0  1043.200     22.5563  21.8449     0.0   73.3888
21465  21411.0  1043.600     22.5689  21.8575     0.0   73.3856
21475  21421.0  1044.000     22.5834  21.8720     0.0   73.3755
21485  21431.0  1044.400     22.5944  21.8830     0.0   73.3806
21495  21441.0  1044.800     22.6083  21.8968     0.0   73.4073
21505  21451.0  1045.200     22.6216  21.9102     0.0   73.4315
21515  21461.0  1045.600     22.6363  21.9249     0.0   73.4387
21525  21471.0  1046.000     22.6492  21.9377     0.0   73.4689
21535  21481.0  1046.400     22.6617  21.9503     0.0   73.4793
21545  21491.0  1046.800     22.6761  21.9647     0.0   73.5027
21555  21501.0  1047.200     22.6893  21.9779     0.0   73.5193
21565  21511.0  1047.600     22.7033  21.9919     0.0   73.5251
21575  21521.0  1048.000     22.7164  22.0050     0.0   73.5262
21585  21531.0  1048.400     22.7297  22.0182     0.0   73.5272
21595  21541.0  1048.800     22.7429  22.0314     0.0   73.5361
21605  21551.0  1049.200     22.7553  22.0439     0.0   73.5498
21615  21561.0  1049.600     22.7701  22.0587     0.0   73.5682
21625  21571.0  1050.000     22.7831  22.0717     0.0   73.5827
21635  21581.0  1050.400     22.7949  22.0834     0.0   73.5697
21645  21591.0  1050.800     22.8092  22.0978     0.0   73.5850
21655  21601.0  1051.200     22.8225  22.1111     0.0   73.6112
21665  21611.0  1051.600     22.8358  22.1243     0.0   73.5865
21675  21621.0  1052.000     22.8492  22.1378     0.0   73.6213
21685  21631.0  1052.400     22.8622  22.1508     0.0   73.6281
21695  21641.0  1052.800     22.8764  22.1649     0.0   73.6513
21705  21651.0  1053.200     22.8896  22.1782     0.0   73.6803
21715  21661.0  1053.600     22.9035  22.1920     0.0   73.6699
21725  21671.0  1054.000     22.9159  22.2045     0.0   73.6610
21735  21681.0  1054.400     22.9288  22.2174     0.0   73.7033
21745  21691.0  1054.800     22.9422  22.2308     0.0   73.6967
21755  21701.0  1055.200     22.9565  22.2451     0.0   73.7484
21765  21711.0  1055.600     22.9693  22.2578     0.0   73.7243
21775  21721.0  1056.000     22.9815  22.2701     0.0   73.7201
21785  21731.0  1056.400     22.9952  22.2838     0.0   73.7065
21795  21741.0  1056.800     23.0093  22.2979     0.0   73.7433
21805  21751.0  1057.200     23.0229  22.3114     0.0   73.7992
21815  21761.0  1057.600     23.0361  22.3247     0.0   73.7670
21825  21771.0  1058.000     23.0499  22.3384     0.0   73.7653
21835  21781.0  1058.400     23.0630  22.3515     0.0   73.7904
21845  21791.0  1058.800     23.0755  22.3640     0.0   73.8074
21855  21801.0  1059.200     23.0894  22.3780     0.0   73.8225
21865  21811.0  1059.600     23.1028  22.3913     0.0   73.8410
21875  21821.0  1060.000     23.1157  22.4043     0.0   73.7874
21885  21831.0  1060.400     23.1300  22.4186     0.0   73.8543
21895  21841.0  1060.800     23.1422  22.4308     0.0   73.8696
21905  21851.0  1061.200     23.1558  22.4444     0.0   73.8668
21915  21861.0  1061.600     23.1686  22.4572     0.0   73.9009
21925  21871.0  1062.000     23.1828  22.4714     0.0   73.8860
21935  21881.0  1062.400     23.1953  22.4839     0.0   73.8908
21945  21891.0  1062.800     23.2091  22.4976     0.0   73.8984
21955  21901.0  1063.200     23.2212  22.5098     0.0   73.9295
21965  21911.0  1063.600     23.2369  22.5254     0.0   73.9687
21975  21921.0  1064.000     23.2487  22.5372     0.0   73.9441
21985  21931.0  1064.400     23.2623  22.5509     0.0   73.9673
21995  21941.0  1064.800     23.2743  22.5629     0.0   73.9271
22005  21951.0  1065.200     23.2890  22.5776     0.0   73.9812
22015  21961.0  1065.600     23.3032  22.5917     0.0   74.0053
22025  21971.0  1066.000     23.3164  22.6050     0.0   74.0027
22035  21981.0  1066.400     23.3291  22.6177     0.0   73.9931
22045  21991.0  1066.800     23.3431  22.6316     0.0   74.0499
22055  22001.0  1067.200     23.3551  22.6436     0.0   74.0173
22065  22011.0  1067.600     23.3697  22.6582     0.0   74.0534
22075  22021.0  1068.000     23.3823  22.6709     0.0   74.0767
22085  22031.0  1068.400     23.3963  22.6848     0.0   74.0746
22095  22041.0  1068.800     23.4102  22.6988     0.0   74.0385
22105  22051.0  1069.200     23.4233  22.7119     0.0   74.0770
22115  22061.0  1069.600     23.4360  22.7246     0.0   74.0677
22125  22071.0  1070.000     23.4485  22.7370     0.0   74.0800
22135  22081.0  1070.400     23.4622  22.7508     0.0   74.0939
22145  22091.0  1070.800     23.4752  22.7637     0.0   74.1188
22155  22101.0  1071.200     23.4881  22.7766     0.0   74.1388
22165  22111.0  1071.600     23.5033  22.7918     0.0   74.1592
22175  22121.0  1072.000     23.5154  22.8040     0.0   74.1598
22185  22131.0  1072.400     23.5286  22.8172     0.0   74.1650
22195  22141.0  1072.800     23.5412  22.8297     0.0   74.1625
22205  22151.0  1073.200     23.5555  22.8441     0.0   74.1900
22215  22161.0  1073.600     23.5681  22.8567     0.0   74.1658
22225  22171.0  1074.000     23.5817  22.8703     0.0   74.1830
22235  22181.0  1074.400     23.5947  22.8833     0.0   74.2054
22245  22191.0  1074.800     23.6095  22.8981     0.0   74.2225
22255  22201.0  1075.200     23.6227  22.9113     0.0   74.2550
22265  22211.0  1075.600     23.6347  22.9232     0.0   74.2478
22275  22221.0  1076.000     23.6487  22.9372     0.0   74.2281
22285  22231.0  1076.400     23.6628  22.9513     0.0   74.2675
22295  22241.0  1076.800     23.6759  22.9645     0.0   74.2519
22305  22251.0  1077.200     23.6890  22.9776     0.0   74.2997
22315  22261.0  1077.600     23.7020  22.9905     0.0   74.3074
22325  22271.0  1078.000     23.7162  23.0048     0.0   74.2722
22335  22281.0  1078.400     23.7281  23.0166     0.0   74.2989
22345  22291.0  1078.800     23.7425  23.0311     0.0   74.3024
22355  22301.0  1079.200     23.7573  23.0458     0.0   74.3689
22365  22311.0  1079.600     23.7696  23.0581     0.0   74.3681
22375  22321.0  1080.000     23.7826  23.0712     0.0   74.3327
22385  22331.0  1080.400     23.7958  23.0844     0.0   74.3227
22395  22341.0  1080.800     23.8102  23.0988     0.0   74.3939
22405  22351.0  1081.200     23.8220  23.1106     0.0   74.3691
22415  22361.0  1081.600     23.8361  23.1247     0.0   74.3840
22425  22371.0  1082.000     23.8493  23.1378     0.0   74.3817
22435  22381.0  1082.400     23.8630  23.1516     0.0   74.4131
22445  22391.0  1082.800     23.8761  23.1647     0.0   74.4109
22455  22401.0  1083.200     23.8886  23.1772     0.0   74.4069
22465  22411.0  1083.600     23.9022  23.1908     0.0   74.4432
22475  22421.0  1084.000     23.9158  23.2044     0.0   74.4093
22485  22431.0  1084.400     23.9289  23.2175     0.0   74.4605
22495  22441.0  1084.800     23.9423  23.2309     0.0   74.4845
22505  22451.0  1085.200     23.9548  23.2433     0.0   74.4654
22515  22461.0  1085.600     23.9690  23.2576     0.0   74.5062
22525  22471.0  1086.000     23.9841  23.2727     0.0   74.4928
22535  22481.0  1086.400     23.9959  23.2844     0.0   74.5044
22545  22491.0  1086.800     24.0087  23.2973     0.0   74.4839
22555  22501.0  1087.200     24.0233  23.3119     0.0   74.4989
22565  22511.0  1087.600     24.0355  23.3241     0.0   74.5159
22575  22521.0  1088.000     24.0494  23.3379     0.0   74.5640
22585  22531.0  1088.400     24.0624  23.3510     0.0   74.5339
22595  22541.0  1088.800     24.0755  23.3641     0.0   74.5430
22605  22551.0  1089.200     24.0896  23.3781     0.0   74.5681
22615  22561.0  1089.600     24.1033  23.3919     0.0   74.5936
22625  22571.0  1090.000     24.1152  23.4038     0.0   74.5821
22635  22581.0  1090.400     24.1284  23.4170     0.0   74.5892
22645  22591.0  1090.800     24.1435  23.4320     0.0   74.6101
22655  22601.0  1091.200     24.1562  23.4448     0.0   74.6405
22665  22611.0  1091.600     24.1685  23.4571     0.0   74.6182
22675  22621.0  1092.000     24.1820  23.4706     0.0   74.6281
22685  22631.0  1092.400     24.1953  23.4839     0.0   74.6352
22695  22641.0  1092.800     24.2087  23.4973     0.0   74.6446
22705  22651.0  1093.200     24.2228  23.5114     0.0   74.6470
22715  22661.0  1093.600     24.2353  23.5239     0.0   74.6635
22725  22671.0  1094.000     24.2487  23.5372     0.0   74.7007
22735  22681.0  1094.400     24.2624  23.5510     0.0   74.6971
22745  22691.0  1094.800     24.2751  23.5636     0.0   74.6766
22755  22701.0  1095.200     24.2893  23.5778     0.0   74.6771
22765  22711.0  1095.600     24.3027  23.5913     0.0   74.6838
22775  22721.0  1096.000     24.3149  23.6035     0.0   74.7031
22785  22731.0  1096.400     24.3294  23.6180     0.0   74.7220
22795  22741.0  1096.800     24.3420  23.6306     0.0   74.7376
22805  22751.0  1097.200     24.3561  23.6447     0.0   74.7393
22815  22761.0  1097.600     24.3684  23.6570     0.0   74.7357
22825  22771.0  1098.000     24.3820  23.6706     0.0   74.7556
22835  22781.0  1098.400     24.3939  23.6825     0.0   74.7380
22845  22791.0  1098.800     24.4082  23.6967     0.0   74.7728
22855  22801.0  1099.200     24.4225  23.7111     0.0   74.8101
22865  22811.0  1099.600     24.4355  23.7240     0.0   74.8016
22875  22821.0  1100.000     24.4487  23.7372     0.0   74.8006
22885  22831.0  1100.400     24.4627  23.7513     0.0   74.8215
22895  22841.0  1100.800     24.4760  23.7646     0.0   74.8180
22905  22851.0  1101.200     24.4892  23.7777     0.0   74.8439
22915  22861.0  1101.600     24.5031  23.7917     0.0   74.8643
22925  22871.0  1102.000     24.5152  23.8038     0.0   74.8585
22935  22881.0  1102.400     24.5296  23.8182     0.0   74.8631
22945  22891.0  1102.800     24.5423  23.8309     0.0   74.8464
22955  22901.0  1103.200     24.5558  23.8444     0.0   74.8731
22965  22911.0  1103.600     24.5692  23.8578     0.0   74.8544
22975  22921.0  1104.000     24.5829  23.8715     0.0   74.9215
22985  22931.0  1104.400     24.5963  23.8849     0.0   74.9057
22995  22941.0  1104.800     24.6096  23.8981     0.0   74.9000
23005  22951.0  1105.200     24.6215  23.9101     0.0   74.9066
23015  22961.0  1105.600     24.6348  23.9233     0.0   74.8706
23025  22971.0  1106.000     24.6487  23.9372     0.0   74.9054
23035  22981.0  1106.400     24.6628  23.9514     0.0   74.9215
23045  22991.0  1106.800     24.6755  23.9640     0.0   74.9384
23055  23001.0  1107.200     24.6889  23.9774     0.0   74.9802
23065  23011.0  1107.600     24.7012  23.9897     0.0   74.9522
23075  23021.0  1108.000     24.7158  24.0044     0.0   74.9906
23085  23031.0  1108.400     24.7286  24.0171     0.0   74.9662
23095  23041.0  1108.800     24.7428  24.0314     0.0   74.9946
23105  23051.0  1109.200     24.7548  24.0433     0.0   74.9986
23115  23061.0  1109.600     24.7690  24.0576     0.0   75.0067
23125  23071.0  1110.000     24.7832  24.0717     0.0   75.0359
23135  23081.0  1110.400     24.7969  24.0854     0.0   75.0294
23145  23091.0  1110.800     24.8094  24.0980     0.0   75.0527
23155  23101.0  1111.200     24.8232  24.1118     0.0   75.0417
23165  23111.0  1111.600     24.8361  24.1247     0.0   75.0224
23175  23121.0  1112.000     24.8496  24.1382     0.0   75.0566
23185  23131.0  1112.400     24.8624  24.1509     0.0   75.0321
23195  23141.0  1112.800     24.8757  24.1643     0.0   75.0561
23205  23151.0  1113.200     24.8870  24.1756     0.0   75.0692
23215  23161.0  1113.600     24.9029  24.1915     0.0   75.0941
23225  23171.0  1114.000     24.9157  24.2043     0.0   75.0999
23235  23181.0  1114.400     24.9293  24.2179     0.0   75.0905
23245  23191.0  1114.800     24.9430  24.2316     0.0   75.1201
23255  23201.0  1115.200     24.9570  24.2456     0.0   75.1311
23265  23211.0  1115.600     24.9675  24.2561     0.0   75.1434
23275  23221.0  1116.000     24.9824  24.2710     0.0   75.0904
23285  23231.0  1116.400     24.9961  24.2846     0.0   75.1535
23295  23241.0  1116.800     25.0100  24.2986     0.0   75.1507
23305  23251.0  1117.200     25.0216  24.3102     0.0   75.1853
23315  23261.0  1117.600     25.0346  24.3231     0.0   75.1790
23325  23271.0  1118.000     25.0481  24.3367     0.0   75.1581
23335  23281.0  1118.400     25.0635  24.3521     0.0   75.2232
23345  23291.0  1118.800     25.0759  24.3645     0.0   75.1543
23355  23301.0  1119.200     25.0893  24.3779     0.0   75.2179
23365  23311.0  1119.600     25.1024  24.3909     0.0   75.2220
23375  23321.0  1120.000     25.1152  24.4037     0.0   75.2206
23385  23331.0  1120.400     25.1297  24.4183     0.0   75.2411
23395  23341.0  1120.800     25.1423  24.4309     0.0   75.2227
23405  23351.0  1121.200     25.1561  24.4446     0.0   75.2503
23415  23361.0  1121.600     25.1698  24.4584     0.0   75.2674
23425  23371.0  1122.000     25.1821  24.4707     0.0   75.2755
23435  23381.0  1122.400     25.1957  24.4843     0.0   75.2825
23445  23391.0  1122.800     25.2093  24.4978     0.0   75.3030
23455  23401.0  1123.200     25.2216  24.5102     0.0   75.3224
23465  23411.0  1123.600     25.2358  24.5243     0.0   75.3165
23475  23421.0  1124.000     25.2483  24.5368     0.0   75.2933
23485  23431.0  1124.400     25.2629  24.5514     0.0   75.3587
23495  23441.0  1124.800     25.2764  24.5650     0.0   75.3221
23505  23451.0  1125.200     25.2885  24.5770     0.0   75.3387
23515  23461.0  1125.600     25.3035  24.5921     0.0   75.3557
23525  23471.0  1126.000     25.3157  24.6043     0.0   75.3686
23535  23481.0  1126.400     25.3290  24.6175     0.0   75.3636
23545  23491.0  1126.800     25.3435  24.6321     0.0   75.3331
23555  23501.0  1127.200     25.3561  24.6447     0.0   75.3765
23565  23511.0  1127.600     25.3690  24.6576     0.0   75.3734
23575  23521.0  1128.000     25.3829  24.6714     0.0   75.3763
23585  23531.0  1128.400     25.3970  24.6855     0.0   75.3909
23595  23541.0  1128.800     25.4097  24.6983     0.0   75.3982
23605  23551.0  1129.200     25.4242  24.7127     0.0   75.4236
23615  23561.0  1129.600     25.4369  24.7255     0.0   75.3985
23625  23571.0  1130.000     25.4495  24.7381     0.0   75.4443
23635  23581.0  1130.400     25.4619  24.7505     0.0   75.4132
23645  23591.0  1130.800     25.4750  24.7636     0.0   75.4224
23655  23601.0  1131.200     25.4893  24.7779     0.0   75.4458
23665  23611.0  1131.600     25.5026  24.7911     0.0   75.4850
23675  23621.0  1132.000     25.5148  24.8033     0.0   75.4422
23685  23631.0  1132.400     25.5282  24.8168     0.0   75.4418
23695  23641.0  1132.800     25.5423  24.8308     0.0   75.4958
23705  23651.0  1133.200     25.5553  24.8439     0.0   75.4750
23715  23661.0  1133.600     25.5693  24.8579     0.0   75.5269
23725  23671.0  1134.000     25.5826  24.8711     0.0   75.5340
23735  23681.0  1134.400     25.5964  24.8850     0.0   75.5505
23745  23691.0  1134.800     25.6081  24.8967     0.0   75.4942
23755  23701.0  1135.200     25.6208  24.9094     0.0   75.5246
23765  23711.0  1135.600     25.6373  24.9259     0.0   75.5467
23775  23721.0  1136.000     25.6494  24.9379     0.0   75.5489
23785  23731.0  1136.400     25.6612  24.9498     0.0   75.5529
23795  23741.0  1136.800     25.6763  24.9649     0.0   75.5643
23805  23751.0  1137.200     25.6896  24.9781     0.0   75.5849
23815  23761.0  1137.600     25.7017  24.9902     0.0   75.5710
23825  23771.0  1138.000     25.7168  25.0054     0.0   75.5947
23835  23781.0  1138.400     25.7296  25.0182     0.0   75.6138
23845  23791.0  1138.800     25.7425  25.0311     0.0   75.6327
23855  23801.0  1139.200     25.7571  25.0457     0.0   75.6210
23865  23811.0  1139.600     25.7692  25.0578     0.0   75.6202
23875  23821.0  1140.000     25.7814  25.0700     0.0   75.6254
23885  23831.0  1140.400     25.7954  25.0840     0.0   75.6153
23895  23841.0  1140.800     25.8095  25.0981     0.0   75.6646
23905  23851.0  1141.200     25.8236  25.1122     0.0   75.6557
23915  23861.0  1141.600     25.8358  25.1244     0.0   75.6272
23925  23871.0  1142.000     25.8494  25.1380     0.0   75.6658
23935  23881.0  1142.400     25.8617  25.1502     0.0   75.7063
23945  23891.0  1142.800     25.8770  25.1656     0.0   75.6677
23955  23901.0  1143.200     25.8896  25.1782     0.0   75.6832
23965  23911.0  1143.600     25.9034  25.1920     0.0   75.6993
23975  23921.0  1144.000     25.9154  25.2039     0.0   75.7001
23985  23931.0  1144.400     25.9295  25.2180     0.0   75.7075
23995  23941.0  1144.800     25.9433  25.2319     0.0   75.7029
24005  23951.0  1145.200     25.9559  25.2445     0.0   75.7172
24015  23961.0  1145.600     25.9690  25.2576     0.0   75.7367
24025  23971.0  1146.000     25.9819  25.2705     0.0   75.6997
24035  23981.0  1146.400     25.9968  25.2854     0.0   75.7200
24045  23991.0  1146.800     26.0091  25.2977     0.0   75.7117
24055  24001.0  1147.200     26.0228  25.3113     0.0   75.7835
24065  24011.0  1147.600     26.0345  25.3231     0.0   75.7470
24075  24021.0  1148.000     26.0507  25.3393     0.0   75.7682
24085  24031.0  1148.400     26.0620  25.3506     0.0   75.7694
24095  24041.0  1148.800     26.0753  25.3638     0.0   75.7813
24105  24051.0  1149.200     26.0891  25.3776     0.0   75.7879
24115  24061.0  1149.600     26.1029  25.3914     0.0   75.7760
24125  24071.0  1150.000     26.1147  25.4033     0.0   75.8098
24135  24081.0  1150.400     26.1293  25.4179     0.0   75.8241
24145  24091.0  1150.800     26.1422  25.4308     0.0   75.8291
24155  24101.0  1151.200     26.1563  25.4449     0.0   75.8262
24165  24111.0  1151.600     26.1720  25.4606     0.0   75.8579
24175  24121.0  1152.000     26.1814  25.4700     0.0   75.8236
24185  24131.0  1152.400     26.1965  25.4851     0.0   75.8738
24195  24141.0  1152.800     26.2092  25.4978     0.0   75.8380
24205  24151.0  1153.200     26.2227  25.5113     0.0   75.8852
24215  24161.0  1153.600     26.2361  25.5247     0.0   75.8697
24225  24171.0  1154.000     26.2482  25.5368     0.0   75.9083
24235  24181.0  1154.400     26.2605  25.5491     0.0   75.8720
24245  24191.0  1154.800     26.2756  25.5642     0.0   75.9129
24255  24201.0  1155.200     26.2889  25.5774     0.0   75.9163
24265  24211.0  1155.600     26.3018  25.5904     0.0   75.9310
24275  24221.0  1156.000     26.3172  25.6058     0.0   75.9575
24285  24231.0  1156.400     26.3299  25.6185     0.0   75.9625
24295  24241.0  1156.800     26.3431  25.6317     0.0   75.9449
24305  24251.0  1157.200     26.3559  25.6445     0.0   75.9960
24315  24261.0  1157.600     26.3690  25.6575     0.0   75.9466
24325  24271.0  1158.000     26.3834  25.6720     0.0   75.9917
24335  24281.0  1158.400     26.3965  25.6850     0.0   75.9792
24345  24291.0  1158.800     26.4091  25.6976     0.0   75.9880
24355  24301.0  1159.200     26.4233  25.7118     0.0   76.0061
24365  24311.0  1159.600     26.4354  25.7239     0.0   75.9896
24375  24321.0  1160.000     26.4496  25.7382     0.0   76.0098
24385  24331.0  1160.400     26.4614  25.7499     0.0   76.0014
24395  24341.0  1160.800     26.4754  25.7639     0.0   76.0347
24405  24351.0  1161.200     26.4898  25.7784     0.0   76.0257
24415  24361.0  1161.600     26.5017  25.7903     0.0   76.0067
24425  24371.0  1162.000     26.5153  25.8038     0.0   76.0319
24435  24381.0  1162.400     26.5301  25.8186     0.0   76.0847
24445  24391.0  1162.800     26.5423  25.8309     0.0   76.0352
24455  24401.0  1163.200     26.5566  25.8452     0.0   76.0696
24465  24411.0  1163.600     26.5673  25.8559     0.0   76.0465
24475  24421.0  1164.000     26.5818  25.8704     0.0   76.0749
24485  24431.0  1164.400     26.5959  25.8845     0.0   76.0810
24495  24441.0  1164.800     26.6085  25.8971     0.0   76.0770
24505  24451.0  1165.200     26.6219  25.9104     0.0   76.1038
24515  24461.0  1165.600     26.6355  25.9241     0.0   76.0729
24525  24471.0  1166.000     26.6509  25.9394     0.0   76.1240
24535  24481.0  1166.400     26.6621  25.9506     0.0   76.1220
24545  24491.0  1166.800     26.6735  25.9621     0.0   76.1005
24555  24501.0  1167.200     26.6895  25.9781     0.0   76.1501
24565  24511.0  1167.600     26.7034  25.9920     0.0   76.1454
24575  24521.0  1168.000     26.7153  26.0039     0.0   76.1230
24585  24531.0  1168.400     26.7297  26.0182     0.0   76.1483
24595  24541.0  1168.800     26.7423  26.0309     0.0   76.1690
24605  24551.0  1169.200     26.7566  26.0452     0.0   76.1959
24615  24561.0  1169.600     26.7685  26.0571     0.0   76.1521
24625  24571.0  1170.000     26.7821  26.0707     0.0   76.1688
24635  24581.0  1170.400     26.7949  26.0835     0.0   76.1878
24645  24591.0  1170.800     26.8096  26.0982     0.0   76.1830
24655  24601.0  1171.200     26.8224  26.1109     0.0   76.1998
24665  24611.0  1171.600     26.8374  26.1260     0.0   76.2027
24675  24621.0  1172.000     26.8501  26.1387     0.0   76.2127
24685  24631.0  1172.400     26.8628  26.1514     0.0   76.1913
24695  24641.0  1172.800     26.8757  26.1643     0.0   76.2087
24705  24651.0  1173.200     26.8903  26.1788     0.0   76.2292
24715  24661.0  1173.600     26.9027  26.1912     0.0   76.2584
24725  24671.0  1174.000     26.9159  26.2044     0.0   76.2574
24735  24681.0  1174.400     26.9293  26.2178     0.0   76.2608
24745  24691.0  1174.800     26.9426  26.2312     0.0   76.2848
24755  24701.0  1175.200     26.9549  26.2435     0.0   76.2904
24765  24711.0  1175.600     26.9683  26.2568     0.0   76.2844
24775  24721.0  1176.000     26.9811  26.2696     0.0   76.3094
24785  24731.0  1176.400     26.9960  26.2846     0.0   76.3140
24795  24741.0  1176.800     27.0078  26.2964     0.0   76.3046
24805  24751.0  1177.200     27.0216  26.3102     0.0   76.2833
24815  24761.0  1177.600     27.0354  26.3240     0.0   76.3036
24825  24771.0  1178.000     27.0479  26.3364     0.0   76.3365
24835  24781.0  1178.400     27.0626  26.3512     0.0   76.3466
24845  24791.0  1178.800     27.0751  26.3636     0.0   76.3348
24855  24801.0  1179.200     27.0898  26.3783     0.0   76.3607
24865  24811.0  1179.600     27.1040  26.3926     0.0   76.3702
24875  24821.0  1180.000     27.1162  26.4048     0.0   76.3661
24885  24831.0  1180.400     27.1292  26.4178     0.0   76.3837
24895  24841.0  1180.800     27.1422  26.4307     0.0   76.3384
24905  24851.0  1181.200     27.1570  26.4456     0.0   76.3730
24915  24861.0  1181.600     27.1690  26.4576     0.0   76.3782
24925  24871.0  1182.000     27.1817  26.4703     0.0   76.3699
24935  24881.0  1182.400     27.1956  26.4842     0.0   76.4093
24945  24891.0  1182.800     27.2097  26.4983     0.0   76.4026
24955  24901.0  1183.200     27.2230  26.5115     0.0   76.4115
24965  24911.0  1183.600     27.2348  26.5233     0.0   76.4156
24975  24921.0  1184.000     27.2491  26.5377     0.0   76.4255
24985  24931.0  1184.400     27.2632  26.5517     0.0   76.4110
24995  24941.0  1184.800     27.2750  26.5635     0.0   76.4404
25005  24951.0  1185.200     27.2884  26.5769     0.0   76.4139
25015  24961.0  1185.600     27.3029  26.5915     0.0   76.4819
25025  24971.0  1186.000     27.3157  26.6042     0.0   76.4587
25035  24981.0  1186.400     27.3287  26.6172     0.0   76.4490
25045  24991.0  1186.800     27.3423  26.6309     0.0   76.4679
25055  25001.0  1187.200     27.3548  26.6434     0.0   76.4877
25065  25011.0  1187.600     27.3693  26.6579     0.0   76.5216
25075  25021.0  1188.000     27.3827  26.6712     0.0   76.4592
25085  25031.0  1188.400     27.3958  26.6844     0.0   76.4703
25095  25041.0  1188.800     27.4088  26.6974     0.0   76.5372
25105  25051.0  1189.200     27.4224  26.7109     0.0   76.5003
25115  25061.0  1189.600     27.4356  26.7242     0.0   76.5176
25125  25071.0  1190.000     27.4482  26.7367     0.0   76.5391
25135  25081.0  1190.400     27.4614  26.7500     0.0   76.4982
25145  25091.0  1190.800     27.4749  26.7635     0.0   76.5345
25155  25101.0  1191.200     27.4884  26.7770     0.0   76.5632
25165  25111.0  1191.600     27.5035  26.7921     0.0   76.5812
25175  25121.0  1192.000     27.5144  26.8029     0.0   76.5833
25185  25131.0  1192.400     27.5299  26.8184     0.0   76.5625
25195  25141.0  1192.800     27.5427  26.8313     0.0   76.5618
25205  25151.0  1193.200     27.5543  26.8428     0.0   76.5142
25215  25161.0  1193.600     27.5663  26.8548     0.0   76.5117
25225  25171.0  1194.000     27.5813  26.8699     0.0   76.5367
25235  25181.0  1194.400     27.5948  26.8834     0.0   76.5574
25245  25191.0  1194.800     27.6116  26.9001     0.0   76.5714
25255  25201.0  1195.200     27.6240  26.9126     0.0   76.5830
25265  25211.0  1195.600     27.6358  26.9244     0.0   76.6247
25275  25221.0  1196.000     27.6506  26.9392     0.0   76.6582
25285  25231.0  1196.400     27.6620  26.9506     0.0   76.6225
25295  25241.0  1196.800     27.6752  26.9637     0.0   76.6588
25305  25251.0  1197.200     27.6890  26.9775     0.0   76.6336
25315  25261.0  1197.600     27.7028  26.9914     0.0   76.6803
25325  25271.0  1198.000     27.7175  27.0060     0.0   76.6722
25335  25281.0  1198.400     27.7281  27.0167     0.0   76.7069
25345  25291.0  1198.800     27.7424  27.0310     0.0   76.6831
25355  25301.0  1199.200     27.7546  27.0432     0.0   76.6250
25365  25311.0  1199.600     27.7696  27.0582     0.0   76.6750
25375  25321.0  1200.000     27.7818  27.0704     0.0   76.6445
25385  25331.0  1200.400     27.7938  27.0824     0.0   76.6672
25395  25341.0  1200.800     27.8088  27.0974     0.0   76.7012
25405  25351.0  1201.200     27.8218  27.1103     0.0   76.7242
25415  25361.0  1201.600     27.8359  27.1245     0.0   76.7376
25425  25371.0  1202.000     27.8498  27.1384     0.0   76.7057
25435  25381.0  1202.400     27.8615  27.1500     0.0   76.7194
25445  25391.0  1202.800     27.8764  27.1649     0.0   76.7059
25455  25401.0  1203.200     27.8886  27.1772     0.0   76.7394
25465  25411.0  1203.600     27.9029  27.1914     0.0   76.7475
25475  25421.0  1204.000     27.9168  27.2054     0.0   76.7499
25485  25431.0  1204.400     27.9295  27.2180     0.0   76.7520
25495  25441.0  1204.800     27.9426  27.2312     0.0   76.7481
25505  25451.0  1205.200     27.9545  27.2430     0.0   76.7256
25515  25461.0  1205.600     27.9689  27.2575     0.0   76.7701
25525  25471.0  1206.000     27.9813  27.2698     0.0   76.8170
25535  25481.0  1206.400     27.9931  27.2816     0.0   76.7471
25545  25491.0  1206.800     28.0092  27.2977     0.0   76.7720
25555  25501.0  1207.200     28.0221  27.3107     0.0   76.7809
25565  25511.0  1207.600     28.0354  27.3240     0.0   76.7730
25575  25521.0  1208.000     28.0498  27.3384     0.0   76.8071
25585  25531.0  1208.400     28.0623  27.3509     0.0   76.8106
25595  25541.0  1208.800     28.0751  27.3637     0.0   76.8105
25605  25551.0  1209.200     28.0886  27.3772     0.0   76.8315
25615  25561.0  1209.600     28.1033  27.3919     0.0   76.8658
25625  25571.0  1210.000     28.1154  27.4039     0.0   76.8755
25635  25581.0  1210.400     28.1293  27.4178     0.0   76.8428
25645  25591.0  1210.800     28.1415  27.4300     0.0   76.8590
25655  25601.0  1211.200     28.1573  27.4458     0.0   76.8496
25665  25611.0  1211.600     28.1680  27.4566     0.0   76.8693
25675  25621.0  1212.000     28.1832  27.4717     0.0   76.8636
25685  25631.0  1212.400     28.1945  27.4831     0.0   76.8816
25695  25641.0  1212.800     28.2101  27.4986     0.0   76.9044
25705  25651.0  1213.200     28.2216  27.5102     0.0   76.8778
25715  25661.0  1213.600     28.2359  27.5245     0.0   76.9155
25725  25671.0  1214.000     28.2491  27.5376     0.0   76.9020
25735  25681.0  1214.400     28.2615  27.5501     0.0   76.8923
25745  25691.0  1214.800     28.2760  27.5645     0.0   76.9136
25755  25701.0  1215.200     28.2881  27.5767     0.0   76.9242
25765  25711.0  1215.600     28.3014  27.5900     0.0   76.9330
25775  25721.0  1216.000     28.3153  27.6039     0.0   76.9183
25785  25731.0  1216.400     28.3284  27.6169     0.0   76.9106
25795  25741.0  1216.800     28.3425  27.6310     0.0   76.9616
25805  25751.0  1217.200     28.3558  27.6443     0.0   76.9559
25815  25761.0  1217.600     28.3684  27.6569     0.0   76.9215
25825  25771.0  1218.000     28.3834  27.6719     0.0   76.9100
25835  25781.0  1218.400     28.3961  27.6846     0.0   76.9668
25845  25791.0  1218.800     28.4082  27.6968     0.0   76.9545
25855  25801.0  1219.200     28.4227  27.7113     0.0   76.9813
25865  25811.0  1219.600     28.4364  27.7250     0.0   76.9841
25875  25821.0  1220.000     28.4492  27.7378     0.0   76.9947
25885  25831.0  1220.400     28.4624  27.7510     0.0   76.9692
25895  25841.0  1220.800     28.4746  27.7632     0.0   76.9805
25905  25851.0  1221.200     28.4895  27.7781     0.0   77.0339
25915  25861.0  1221.600     28.5021  27.7907     0.0   76.9925
25925  25871.0  1222.000     28.5152  27.8037     0.0   76.9861
25935  25881.0  1222.400     28.5298  27.8184     0.0   77.0573
25945  25891.0  1222.800     28.5421  27.8306     0.0   77.0117
25955  25901.0  1223.200     28.5534  27.8420     0.0   76.9871
25965  25911.0  1223.600     28.5690  27.8576     0.0   77.0308
25975  25921.0  1224.000     28.5824  27.8710     0.0   77.0375
25985  25931.0  1224.400     28.5958  27.8844     0.0   77.0360
25995  25941.0  1224.800     28.6105  27.8991     0.0   77.0592
26005  25951.0  1225.200     28.6222  27.9107     0.0   77.0705
26015  25961.0  1225.600     28.6370  27.9256     0.0   77.0687
26025  25971.0  1226.000     28.6477  27.9363     0.0   77.0440
26035  25981.0  1226.400     28.6632  27.9518     0.0   77.0415
26045  25991.0  1226.800     28.6763  27.9649     0.0   77.0669
26055  26001.0  1227.200     28.6887  27.9773     0.0   77.0814
26065  26011.0  1227.600     28.7013  27.9899     0.0   77.0975
26075  26021.0  1228.000     28.7158  28.0043     0.0   77.1089
26085  26031.0  1228.400     28.7308  28.0193     0.0   77.1158
26095  26041.0  1228.800     28.7406  28.0292     0.0   77.0992
26105  26051.0  1229.200     28.7552  28.0438     0.0   77.1289
26115  26061.0  1229.600     28.7708  28.0593     0.0   77.0783
26125  26071.0  1230.000     28.7819  28.0705     0.0   77.1268
26135  26081.0  1230.400     28.7957  28.0842     0.0   77.1094
26145  26091.0  1230.800     28.8095  28.0980     0.0   77.1043
26155  26101.0  1231.200     28.8220  28.1106     0.0   77.1341
26165  26111.0  1231.600     28.8371  28.1256     0.0   77.1377
26175  26121.0  1232.000     28.8482  28.1368     0.0   77.1436
26185  26131.0  1232.400     28.8623  28.1509     0.0   77.1377
26195  26141.0  1232.800     28.8763  28.1648     0.0   77.1569
26205  26151.0  1233.200     28.8892  28.1777     0.0   77.1749
26215  26161.0  1233.600     28.9028  28.1914     0.0   77.1440
26225  26171.0  1234.000     28.9148  28.2033     0.0   77.1578
26235  26181.0  1234.400     28.9288  28.2174     0.0   77.1781
26245  26191.0  1234.800     28.9419  28.2304     0.0   77.1635
26255  26201.0  1235.200     28.9556  28.2442     0.0   77.1806
26265  26211.0  1235.600     28.9683  28.2568     0.0   77.1694
26275  26221.0  1236.000     28.9822  28.2708     0.0   77.1838
26285  26231.0  1236.400     28.9970  28.2855     0.0   77.2123
26295  26241.0  1236.800     29.0093  28.2979     0.0   77.2089
26305  26251.0  1237.200     29.0236  28.3122     0.0   77.2435
26315  26261.0  1237.600     29.0357  28.3243     0.0   77.2115
26325  26271.0  1238.000     29.0502  28.3387     0.0   77.2601
26335  26281.0  1238.400     29.0625  28.3511     0.0   77.2476
26345  26291.0  1238.800     29.0762  28.3647     0.0   77.2259
26355  26301.0  1239.200     29.0883  28.3769     0.0   77.2481
26365  26311.0  1239.600     29.1034  28.3920     0.0   77.2490
26375  26321.0  1240.000     29.1150  28.4036     0.0   77.2407
26385  26331.0  1240.400     29.1297  28.4183     0.0   77.2268
26395  26341.0  1240.800     29.1412  28.4297     0.0   77.2444
26405  26351.0  1241.200     29.1552  28.4438     0.0   77.2886
26415  26361.0  1241.600     29.1702  28.4588     0.0   77.2903
26425  26371.0  1242.000     29.1823  28.4709     0.0   77.3138
26435  26381.0  1242.400     29.1951  28.4837     0.0   77.2626
26445  26391.0  1242.800     29.2077  28.4962     0.0   77.2630
26455  26401.0  1243.200     29.2223  28.5109     0.0   77.2936
26465  26411.0  1243.600     29.2347  28.5233     0.0   77.3063
26475  26421.0  1244.000     29.2493  28.5379     0.0   77.2967
26485  26431.0  1244.400     29.2619  28.5505     0.0   77.2512
26495  26441.0  1244.800     29.2771  28.5657     0.0   77.3194
26505  26451.0  1245.200     29.2883  28.5768     0.0   77.3133
26515  26461.0  1245.600     29.3015  28.5901     0.0   77.2616
26525  26471.0  1246.000     29.3144  28.6030     0.0   77.2732
26535  26481.0  1246.400     29.3286  28.6172     0.0   77.3248
26545  26491.0  1246.800     29.3412  28.6298     0.0   77.3278
26555  26501.0  1247.200     29.3582  28.6468     0.0   77.3354
26565  26511.0  1247.600     29.3701  28.6586     0.0   77.3438
26575  26521.0  1248.000     29.3817  28.6703     0.0   77.3457
26585  26531.0  1248.400     29.3961  28.6846     0.0   77.3560
26595  26541.0  1248.800     29.4094  28.6980     0.0   77.3883
26605  26551.0  1249.200     29.4224  28.7110     0.0   77.3609
26615  26561.0  1249.600     29.4352  28.7238     0.0   77.4247
26625  26571.0  1250.000     29.4493  28.7378     0.0   77.4045
26635  26581.0  1250.400     29.4627  28.7513     0.0   77.3812
26645  26591.0  1250.800     29.4756  28.7641     0.0   77.4074
26655  26601.0  1251.200     29.4899  28.7785     0.0   77.3677
26665  26611.0  1251.600     29.5022  28.7907     0.0   77.4130
26675  26621.0  1252.000     29.5152  28.8038     0.0   77.4091
26685  26631.0  1252.400     29.5288  28.8174     0.0   77.3879
26695  26641.0  1252.800     29.5418  28.8303     0.0   77.4022
26705  26651.0  1253.200     29.5553  28.8439     0.0   77.3950
26715  26661.0  1253.600     29.5683  28.8569     0.0   77.4125
26725  26671.0  1254.000     29.5834  28.8720     0.0   77.4296
26735  26681.0  1254.400     29.5955  28.8840     0.0   77.4713
26745  26691.0  1254.800     29.6094  28.8980     0.0   77.4626
26755  26701.0  1255.200     29.6210  28.9096     0.0   77.4351
26765  26711.0  1255.600     29.6358  28.9244     0.0   77.4508
26775  26721.0  1256.000     29.6481  28.9366     0.0   77.4490
26785  26731.0  1256.400     29.6623  28.9509     0.0   77.4652
26795  26741.0  1256.800     29.6743  28.9629     0.0   77.4090
26805  26751.0  1257.200     29.6883  28.9769     0.0   77.4686
26815  26761.0  1257.600     29.7026  28.9911     0.0   77.4616
26825  26771.0  1258.000     29.7156  29.0042     0.0   77.4533
26835  26781.0  1258.400     29.7292  29.0178     0.0   77.5007
26845  26791.0  1258.800     29.7420  29.0305     0.0   77.4619
26855  26801.0  1259.200     29.7570  29.0456     0.0   77.5052
26865  26811.0  1259.600     29.7681  29.0566     0.0   77.5079
26875  26821.0  1260.000     29.7827  29.0713     0.0   77.5100
26885  26831.0  1260.400     29.7947  29.0832     0.0   77.5246
26895  26841.0  1260.800     29.8089  29.0974     0.0   77.5049
26905  26851.0  1261.200     29.8217  29.1103     0.0   77.4991
26915  26861.0  1261.600     29.8353  29.1239     0.0   77.4985
26925  26871.0  1262.000     29.8487  29.1373     0.0   77.4959
26935  26881.0  1262.400     29.8636  29.1521     0.0   77.5350
26945  26891.0  1262.800     29.8772  29.1657     0.0   77.5756
26955  26901.0  1263.200     29.8888  29.1773     0.0   77.5279
26965  26911.0  1263.600     29.9029  29.1915     0.0   77.5148
26975  26921.0  1264.000     29.9154  29.2040     0.0   77.5200
26985  26931.0  1264.400     29.9296  29.2182     0.0   77.4899
26995  26941.0  1264.800     29.9438  29.2324     0.0   77.5588
27005  26951.0  1265.200     29.9546  29.2432     0.0   77.5455
27015  26961.0  1265.600     29.9702  29.2587     0.0   77.5641
27025  26971.0  1266.000     29.9835  29.2721     0.0   77.5526
27035  26981.0  1266.400     29.9951  29.2836     0.0   77.5484
27045  26991.0  1266.800     30.0092  29.2978     0.0   77.5493
27055  27001.0  1267.200     30.0222  29.3107     0.0   77.5737
27065  27011.0  1267.600     30.0353  29.3239     0.0   77.5552
27075  27021.0  1268.000     30.0496  29.3382     0.0   77.5982
27085  27031.0  1268.400     30.0618  29.3504     0.0   77.5894
27095  27041.0  1268.800     30.0755  29.3640     0.0   77.6137
27105  27051.0  1269.200     30.0887  29.3773     0.0   77.5866
27115  27061.0  1269.600     30.1030  29.3915     0.0   77.6286
27125  27071.0  1270.000     30.1156  29.4042     0.0   77.6297
27135  27081.0  1270.400     30.1279  29.4165     0.0   77.6405
27145  27091.0  1270.800     30.1415  29.4300     0.0   77.6057
27155  27101.0  1271.200     30.1565  29.4450     0.0   77.6077
27165  27111.0  1271.600     30.1704  29.4590     0.0   77.6377
27175  27121.0  1272.000     30.1835  29.4721     0.0   77.5944
27185  27131.0  1272.400     30.1955  29.4840     0.0   77.6251
27195  27141.0  1272.800     30.2087  29.4973     0.0   77.6499
27205  27151.0  1273.200     30.2230  29.5116     0.0   77.6265
27215  27161.0  1273.600     30.2353  29.5238     0.0   77.5980
27225  27171.0  1274.000     30.2506  29.5392     0.0   77.6416
27235  27181.0  1274.400     30.2625  29.5510     0.0   77.6184
27245  27191.0  1274.800     30.2757  29.5642     0.0   77.6571
27255  27201.0  1275.200     30.2901  29.5787     0.0   77.6287
27265  27211.0  1275.600     30.3025  29.5911     0.0   77.6731
27275  27221.0  1276.000     30.3180  29.6066     0.0   77.6667
27285  27231.0  1276.400     30.3281  29.6166     0.0   77.6918
27295  27241.0  1276.800     30.3434  29.6320     0.0   77.6707
27305  27251.0  1277.200     30.3562  29.6448     0.0   77.6787
27315  27261.0  1277.600     30.3685  29.6570     0.0   77.6815
27325  27271.0  1278.000     30.3828  29.6714     0.0   77.6579
27335  27281.0  1278.400     30.3965  29.6850     0.0   77.6654
27345  27291.0  1278.800     30.4091  29.6977     0.0   77.6930
27355  27301.0  1279.200     30.4220  29.7105     0.0   77.6555
27365  27311.0  1279.600     30.4368  29.7254     0.0   77.6678
27375  27321.0  1280.000     30.4499  29.7384     0.0   77.7138
27385  27331.0  1280.400     30.4630  29.7516     0.0   77.7062
27395  27341.0  1280.800     30.4758  29.7643     0.0   77.7304
27405  27351.0  1281.200     30.4883  29.7768     0.0   77.6846
27415  27361.0  1281.600     30.5024  29.7909     0.0   77.7011
27425  27371.0  1282.000     30.5157  29.8042     0.0   77.7014
27435  27381.0  1282.400     30.5296  29.8182     0.0   77.6931
27445  27391.0  1282.800     30.5406  29.8292     0.0   77.7147
27455  27401.0  1283.200     30.5554  29.8439     0.0   77.7449
27465  27411.0  1283.600     30.5679  29.8564     0.0   77.7184
27475  27421.0  1284.000     30.5816  29.8702     0.0   77.7209
27485  27431.0  1284.400     30.5956  29.8841     0.0   77.7315
27495  27441.0  1284.800     30.6094  29.8980     0.0   77.7230
27505  27451.0  1285.200     30.6227  29.9113     0.0   77.7242
27515  27461.0  1285.600     30.6355  29.9241     0.0   77.7172
27525  27471.0  1286.000     30.6493  29.9378     0.0   77.7616
27535  27481.0  1286.400     30.6628  29.9514     0.0   77.7395
27545  27491.0  1286.800     30.6755  29.9641     0.0   77.7579
27555  27501.0  1287.200     30.6878  29.9764     0.0   77.7419
27565  27511.0  1287.600     30.7035  29.9921     0.0   77.7674
27575  27521.0  1288.000     30.7167  30.0053     0.0   77.7327
27585  27531.0  1288.400     30.7296  30.0182     0.0   77.7815
27595  27541.0  1288.800     30.7420  30.0305     0.0   77.7384
27605  27551.0  1289.200     30.7576  30.0461     0.0   77.7833
27615  27561.0  1289.600     30.7694  30.0580     0.0   77.7463
27625  27571.0  1290.000     30.7824  30.0710     0.0   77.7639
27635  27581.0  1290.400     30.7967  30.0852     0.0   77.7762
27645  27591.0  1290.800     30.8089  30.0975     0.0   77.7726
27655  27601.0  1291.200     30.8219  30.1105     0.0   77.7712
27665  27611.0  1291.600     30.8353  30.1239     0.0   77.7652
27675  27621.0  1292.000     30.8503  30.1388     0.0   77.7871
27685  27631.0  1292.400     30.8628  30.1513     0.0   77.7818
27695  27641.0  1292.800     30.8746  30.1632     0.0   77.7822
27705  27651.0  1293.200     30.8871  30.1757     0.0   77.7687
27715  27661.0  1293.600     30.9005  30.1891     0.0   77.7698
27725  27671.0  1294.000     30.9149  30.2035     0.0   77.7633
27735  27681.0  1294.400     30.9282  30.2168     0.0   77.7634
27745  27691.0  1294.800     30.9430  30.2315     0.0   77.7884
27755  27701.0  1295.200     30.9546  30.2432     0.0   77.7872
27765  27711.0  1295.600     30.9697  30.2583     0.0   77.7978
27775  27721.0  1296.000     30.9833  30.2718     0.0   77.7840
27785  27731.0  1296.400     30.9954  30.2840     0.0   77.7927
27795  27741.0  1296.800     31.0096  30.2982     0.0   77.7715
27805  27751.0  1297.200     31.0212  30.3098     0.0   77.7507
27815  27761.0  1297.600     31.0368  30.3254     0.0   77.7845
27825  27771.0  1298.000     31.0489  30.3375     0.0   77.8024
27835  27781.0  1298.400     31.0631  30.3516     0.0   77.7976
27845  27791.0  1298.800     31.0762  30.3647     0.0   77.7852
27855  27801.0  1299.200     31.0889  30.3774     0.0   77.7872
27865  27811.0  1299.600     31.1032  30.3918     0.0   77.7335
27875  27821.0  1300.000     31.1155  30.4041     0.0   77.7429
27885  27831.0  1300.400     31.1302  30.4187     0.0   77.7705
27895  27841.0  1300.800     31.1417  30.4302     0.0   77.7380
27905  27851.0  1301.200     31.1561  30.4447     0.0   77.7508
27915  27861.0  1301.600     31.1704  30.4590     0.0   77.7408
27925  27871.0  1302.000     31.1822  30.4707     0.0   77.6680
27935  27881.0  1302.400     31.1966  30.4852     0.0   77.7021
27945  27891.0  1302.800     31.2090  30.4975     0.0   77.6827
27955  27901.0  1303.200     31.2247  30.5133     0.0   77.6942
27965  27911.0  1303.600     31.2370  30.5255     0.0   77.6479
27975  27921.0  1304.000     31.2503  30.5388     0.0   77.6326
27985  27931.0  1304.400     31.2601  30.5486     0.0   77.5178
27995  27941.0  1304.800     31.2742  30.5628     0.0   77.5798
28005  27951.0  1305.200     31.2900  30.5785     0.0   77.5880
28015  27961.0  1305.600     31.3040  30.5925     0.0   77.5117
28025  27971.0  1306.000     31.3150  30.6036     0.0   77.3844
28035  27981.0  1306.400     31.3291  30.6177     0.0   77.3755
28045  27991.0  1306.800     31.3423  30.6308     0.0   77.2019
28055  28001.0  1307.200     31.3557  30.6442     0.0   77.0653
28065  28011.0  1307.600     31.3693  30.6579     0.0   76.7407
28075  28021.0  1308.000     31.3832  30.6718     0.0   75.8107
28085  28031.0  1308.400     31.3969  30.6855     0.0   57.4607
28095  28041.0  1308.800     31.4095  30.6981     0.0   56.1957
28105  28051.0  1309.200     31.4239  30.7125     0.0   55.7685
28115  28061.0  1309.600     31.4355  30.7241     0.0   55.5118
28125  28071.0  1310.000     31.4503  30.7389     0.0   55.3377
28135  28081.0  1310.400     31.4633  30.7519     0.0   55.2135
28145  28091.0  1310.800     31.4759  30.7645     0.0   55.0958
28155  28101.0  1311.200     31.4882  30.7768     0.0   55.1369
28165  28111.0  1311.600     31.5040  30.7926     0.0   55.0417
28175  28121.0  1312.000     31.5168  30.8054     0.0   54.9990
28185  28131.0  1312.400     31.5290  30.8175     0.0   55.0304
28195  28141.0  1312.800     31.5430  30.8316     0.0   55.0371
28205  28151.0  1313.200     31.5570  30.8456     0.0   55.0306
28215  28161.0  1313.600     31.5692  30.8578     0.0   55.0053
28225  28171.0  1314.000     31.5835  30.8720     0.0   54.9690
28235  28181.0  1314.400     31.5953  30.8839     0.0   54.9058
28245  28191.0  1314.800     31.6115  30.9000     0.0   54.9035