           Num  Time(s)  PosAbs(mm)  Pos(mm)  Pos(%)  Load(kN)
0          1.0    0.005      2.3157   0.0000     0.0    0.0851
10        11.0    2.005      2.3818   0.0660     0.0    0.1146
20        21.0    4.005      2.4483   0.1326     0.0    0.1451
30        31.0    6.005      2.5151   0.1994     0.0    0.1730
40        41.0    8.005      2.5817   0.2660     0.0    0.2124
50        51.0   10.005      2.6481   0.3324     0.0    0.2485
60        61.0   12.005      2.7151   0.3993     0.0    0.2875
70        71.0   14.005      2.7817   0.4659     0.0    0.3347
80        81.0   16.005      2.8483   0.5325     0.0    0.3790
90        91.0   18.005      2.9149   0.5992     0.0    0.4247
100      101.0   20.005      2.9815   0.6658     0.0    0.4775
110      111.0   22.005      3.0482   0.7325     0.0    0.5357
120      121.0   24.005      3.1151   0.7994     0.0    0.5926
130      131.0   26.005      3.1818   0.8660     0.0    0.6551
140      141.0   28.005      3.2484   0.9327     0.0    0.7219
150      151.0   30.005      3.3150   0.9993     0.0    0.7930
160      161.0   32.005      3.3818   1.0661     0.0    0.8668
170      171.0   34.005      3.4483   1.1326     0.0    0.9443
180      181.0   36.005      3.5150   1.1993     0.0    1.0305
190      191.0   38.005      3.5817   1.2659     0.0    1.1176
200      201.0   40.005      3.6482   1.3325     0.0    1.2095
210      211.0   42.005      3.7150   1.3993     0.0    1.3104
220      221.0   44.005      3.7816   1.4658     0.0    1.4152
230      231.0   46.005      3.8481   1.5324     0.0    1.5242
240      241.0   48.005      3.9148   1.5991     0.0    1.6430
250      251.0   50.005      3.9813   1.6656     0.0    1.7679
260      261.0   52.005      4.0483   1.7326     0.0    1.8988
270      271.0   54.005      4.1149   1.7992     0.0    2.0377
280      281.0   56.005      4.1814   1.8657     0.0    2.1835
290      291.0   58.005      4.2482   1.9325     0.0    2.3368
300      301.0   60.005      4.3148   1.9991     0.0    2.5025
310      311.0   62.005      4.3813   2.0656     0.0    2.6702
320      321.0   64.005      4.4483   2.1326     0.0    2.7990
330      331.0   66.005      4.5149   2.1992     0.0    2.8009
340      341.0   68.005      4.5815   2.2657     0.0    2.8491
350      351.0   70.005      4.6486   2.3329     0.0    2.8634
360      361.0   72.005      4.7149   2.3992     0.0    2.8812
370      371.0   74.005      4.7815   2.4658     0.0    2.8892
380      381.0   76.005      4.8483   2.5326     0.0    2.9055
390      391.0   78.005      4.9151   2.5994     0.0    2.9220
400      401.0   80.005      4.9817   2.6660     0.0    2.9328
410      411.0   82.005      5.0481   2.7324     0.0    2.9473
420      421.0   84.005      5.1146   2.7989     0.0    2.9713
430      431.0   86.005      5.1816   2.8658     0.0    2.9874
440      441.0   88.005      5.2483   2.9326     0.0    3.0279
450      451.0   90.005      5.3150   2.9993     0.0    3.0656
460      461.0   92.005      5.3817   3.0660     0.0    3.1906
470      471.0   94.005      5.4482   3.1325     0.0    3.2426
480      481.0   96.005      5.5150   3.1992     0.0    3.3231
490      491.0   98.005      5.5819   3.2662     0.0    3.3739
500      501.0  100.005      5.6482   3.3325     0.0    3.3719
510      511.0  102.005      5.7149   3.3992     0.0    3.3715
520      521.0  104.005      5.7816   3.4659     0.0    3.3827
530      531.0  106.005      5.8484   3.5327     0.0    3.3895
540      541.0  108.005      5.9149   3.5992     0.0    3.3908
550      551.0  110.005      5.9815   3.6658     0.0    3.3753
560      561.0  112.005      6.0480   3.7323     0.0    3.3913
570      571.0  114.005      6.1147   3.7989     0.0    3.4051
580      581.0  116.005      6.1815   3.8657     0.0    3.4181
590      591.0  118.005      6.2481   3.9324     0.0    3.4311
600      601.0  120.005      6.3148   3.9991     0.0    3.4320
610      611.0  122.005      6.3814   4.0657     0.0    3.4333
620      621.0  124.005      6.4479   4.1322     0.0    3.4319
630      631.0  126.005      6.5148   4.1991     0.0    3.4429
640      641.0  128.005      6.5812   4.2655     0.0    3.4508
650      651.0  130.005      6.6479   4.3322     0.0    3.4547
660      661.0  132.005      6.7146   4.3988     0.0    3.4538
670      671.0  134.005      6.7814   4.4657     0.0    3.4615
680      681.0  136.005      6.8484   4.5327     0.0    3.4806
690      691.0  138.005      6.9149   4.5992     0.0    3.6143
700      701.0  140.005      6.9814   4.6657     0.0    3.7367
710      711.0  142.005      7.0486   4.7329     0.0    3.8189
720      721.0  144.005      7.1148   4.7991     0.0    3.9296
730      731.0  146.005      7.1820   4.8663     0.0    4.0230
740      741.0  148.005      7.2480   4.9323     0.0    4.1483
750      751.0  150.005      7.3146   4.9988     0.0    4.2325
760      761.0  152.005      7.3819   5.0662     0.0    4.2797
770      771.0  154.005      7.4478   5.1321     0.0    4.5126
780      781.0  156.005      7.5146   5.1989     0.0    4.8143
790      791.0  158.005      7.5814   5.2656     0.0    5.0807
800      801.0  160.005      7.6480   5.3323     0.0    5.2919
810      811.0  162.005      7.7148   5.3991     0.0    5.4836
820      821.0  164.005      7.7812   5.4655     0.0    5.6558
830      831.0  166.005      7.8482   5.5325     0.0    5.8307
840      841.0  168.005      7.9146   5.5988     0.0    6.0436
850      851.0  170.005      7.9814   5.6657     0.0    6.2431
860      861.0  172.005      8.0484   5.7327     0.0    6.4023
870      871.0  174.005      8.1144   5.7987     0.0    6.5927
880      881.0  176.005      8.1812   5.8654     0.0    6.7901
890      891.0  178.005      8.2482   5.9325     0.0    7.0064
900      901.0  180.005      8.3150   5.9993     0.0    7.2382
910      911.0  182.005      8.3819   6.0662     0.0    7.4966
920      921.0  184.005      8.4475   6.1318     0.0    7.7719
930      931.0  186.005      8.5143   6.1986     0.0    8.2269
940      941.0  188.005      8.5810   6.2653     0.0    8.6351
950      951.0  190.005      8.6480   6.3323     0.0    9.0620
960      961.0  192.005      8.7146   6.3989     0.0    9.4736
970      971.0  194.005      8.7808   6.4651     0.0    9.9016
980      981.0  196.005      8.8479   6.5322     0.0   10.3907
990      991.0  198.005      8.9150   6.5993     0.0   10.8816
1000    1001.0  200.005      8.9815   6.6658     0.0   11.4066
1010    1011.0  202.005      9.0477   6.7320     0.0   11.9533
1020    1021.0  204.005      9.1142   6.7985     0.0   12.5274
1030    1031.0  206.005      9.1814   6.8657     0.0   13.1309
1040    1041.0  208.005      9.2480   6.9322     0.0   13.7738
1050    1051.0  210.005      9.3144   6.9987     0.0   14.4331
1066    1061.0  211.835      9.3616   7.0459     0.0   14.7488
1076    1071.0  212.235      9.3604   7.0447     0.0   14.6674
1086    1081.0  212.635      9.3599   7.0442     0.0   14.5914
1096    1091.0  213.035      9.3603   7.0446     0.0   14.5422
1106    1101.0  213.435      9.3601   7.0444     0.0   14.5057
1116    1111.0  213.835      9.3606   7.0449     0.0   14.4657
1126    1121.0  214.235      9.3605   7.0448     0.0   14.4246
1136    1131.0  214.635      9.3598   7.0441     0.0   14.3866
1146    1141.0  215.035      9.3600   7.0443     0.0   14.3612
1156    1151.0  215.435      9.3598   7.0440     0.0   14.3298
1166    1161.0  215.835      9.3602   7.0445     0.0   14.2950
1176    1171.0  216.235      9.3603   7.0446     0.0   14.2731
1186    1181.0  216.635      9.3602   7.0445     0.0   14.2482
1196    1191.0  217.035      9.3601   7.0444     0.0   14.2294
1206    1201.0  217.435      9.3598   7.0441     0.0   14.1974
1216    1211.0  217.835      9.3602   7.0445     0.0   14.1720
1226    1221.0  218.235      9.3609   7.0452     0.0   14.1620
1236    1231.0  218.635      9.3605   7.0448     0.0   14.1393
1246    1241.0  219.035      9.3604   7.0446     0.0   14.1154
1256    1251.0  219.435      9.3600   7.0443     0.0   14.0887
1266    1261.0  219.835      9.3603   7.0446     0.0   14.0709
1276    1271.0  220.235      9.3604   7.0447     0.0   14.0483
1286    1281.0  220.635      9.3597   7.0440     0.0   14.0481
1296    1291.0  221.035      9.3606   7.0449     0.0   14.0219
1306    1301.0  221.435      9.3605   7.0448     0.0   14.0046
1317    1311.0  221.835      9.3602   7.0445     0.0   14.0035
1327    1321.0  222.235      9.3605   7.0448     0.0   13.9853
1337    1331.0  222.635      9.3608   7.0451     0.0   13.9651
1347    1341.0  223.035      9.3606   7.0449     0.0   13.9640
1357    1351.0  223.435      9.3610   7.0453     0.0   13.9284
1367    1361.0  223.835      9.3606   7.0449     0.0   13.9285
1377    1371.0  224.235      9.3609   7.0452     0.0   13.9163
1387    1381.0  224.635      9.3606   7.0449     0.0   13.8947
1397    1391.0  225.035      9.3606   7.0449     0.0   13.8768
1407    1401.0  225.435      9.3605   7.0448     0.0   13.8731
1417    1411.0  225.835      9.3603   7.0445     0.0   13.8551
1427    1421.0  226.235      9.3603   7.0446     0.0   13.8463
1437    1431.0  226.635      9.3606   7.0448     0.0   13.8312
1447    1441.0  227.035      9.3601   7.0444     0.0   13.8238
1457    1451.0  227.435      9.3602   7.0445     0.0   13.8081
1467    1461.0  227.835      9.3605   7.0448     0.0   13.7984
1477    1471.0  228.235      9.3606   7.0449     0.0   13.7915
1487    1481.0  228.635      9.3605   7.0448     0.0   13.7805
1497    1491.0  229.035      9.3607   7.0450     0.0   13.7626
1507    1501.0  229.435      9.3610   7.0453     0.0   13.7675
1517    1511.0  229.835      9.3601   7.0444     0.0   13.7508
1527    1521.0  230.235      9.3604   7.0447     0.0   13.7414
1537    1531.0  230.635      9.3603   7.0446     0.0   13.7237
1547    1541.0  231.035      9.3603   7.0446     0.0   13.7029
1557    1551.0  231.435      9.3606   7.0449     0.0   13.7049
1567    1561.0  231.835      9.3608   7.0450     0.0   13.7017
1577    1571.0  232.235      9.3608   7.0451     0.0   13.6886
1587    1581.0  232.635      9.3606   7.0449     0.0   13.6781
1597    1591.0  233.035      9.3603   7.0445     0.0   13.6705
1607    1601.0  233.435      9.3606   7.0449     0.0   13.6674
1617    1611.0  233.835      9.3605   7.0448     0.0   13.6546
1627    1621.0  234.235      9.3603   7.0446     0.0   13.6440
1637    1631.0  234.635      9.3604   7.0447     0.0   13.6420
1647    1641.0  235.035      9.3609   7.0452     0.0   13.6314
1657    1651.0  235.435      9.3601   7.0444     0.0   13.6195
1667    1661.0  235.835      9.3604   7.0447     0.0   13.6288
1677    1671.0  236.235      9.3605   7.0448     0.0   13.6228
1687    1681.0  236.635      9.3607   7.0449     0.0   13.6068
1697    1691.0  237.035      9.3603   7.0446     0.0   13.6006
1707    1701.0  237.435      9.3603   7.0446     0.0   13.5830
1717    1711.0  237.835      9.3602   7.0445     0.0   13.5929
1727    1721.0  238.235      9.3605   7.0448     0.0   13.5675
1737    1731.0  238.635      9.3602   7.0445     0.0   13.5677
1747    1741.0  239.035      9.3606   7.0449     0.0   13.5536
1757    1751.0  239.435      9.3606   7.0448     0.0   13.5383
1767    1761.0  239.835      9.3604   7.0446     0.0   13.5425
1777    1771.0  240.235      9.3607   7.0450     0.0   13.5332
1787    1781.0  240.635      9.3605   7.0447     0.0   13.5228
1797    1791.0  241.035      9.3609   7.0452     0.0   13.5230
1807    1801.0  241.435      9.3610   7.0453     0.0   13.5028
1817    1811.0  241.835      9.3606   7.0449     0.0   13.4928
1827    1821.0  242.235      9.3604   7.0447     0.0   13.4940
1837    1831.0  242.635      9.3606   7.0449     0.0   13.4949
1847    1841.0  243.035      9.3605   7.0448     0.0   13.4872
1857    1851.0  243.435      9.3600   7.0443     0.0   13.4737
1867    1861.0  243.835      9.3603   7.0446     0.0   13.4694
1877    1871.0  244.235      9.3608   7.0451     0.0   13.4558
1887    1881.0  244.635      9.3605   7.0448     0.0   13.4404
1897    1891.0  245.035      9.3604   7.0446     0.0   13.4391
1907    1901.0  245.435      9.3603   7.0446     0.0   13.4442
1917    1911.0  245.835      9.3604   7.0447     0.0   13.4422
1927    1921.0  246.235      9.3608   7.0451     0.0   13.4397
1937    1931.0  246.635      9.3607   7.0450     0.0   13.4300
1947    1941.0  247.035      9.3604   7.0447     0.0   13.4287
1957    1951.0  247.435      9.3610   7.0453     0.0   13.4256
1967    1961.0  247.835      9.3609   7.0452     0.0   13.4673
1977    1971.0  248.235      9.3604   7.0446     0.0   13.4368
1987    1981.0  248.635      9.3603   7.0446     0.0   13.4193
1997    1991.0  249.035      9.3604   7.0447     0.0   13.4360
2007    2001.0  249.435      9.3607   7.0450     0.0   13.4195
2017    2011.0  249.835      9.3605   7.0448     0.0   13.3891
2027    2021.0  250.235      9.3605   7.0448     0.0   13.3875
2037    2031.0  250.635      9.3604   7.0446     0.0   13.4291
2047    2041.0  251.035      9.3603   7.0445     0.0   13.4113
2057    2051.0  251.435      9.3604   7.0447     0.0   13.3923
2067    2061.0  251.835      9.3603   7.0446     0.0   13.3890
2077    2071.0  252.235      9.3603   7.0446     0.0   13.4006
2087    2081.0  252.635      9.3606   7.0449     0.0   13.3710
2097    2091.0  253.035      9.3603   7.0446     0.0   13.3656
2107    2101.0  253.435      9.3601   7.0444     0.0   13.3558
2117    2111.0  253.835      9.3603   7.0446     0.0   13.3377
2127    2121.0  254.235      9.3605   7.0448     0.0   13.3001
2137    2131.0  254.635      9.3606   7.0448     0.0   13.3017
2147    2141.0  255.035      9.3604   7.0447     0.0   13.3124
2157    2151.0  255.435      9.3600   7.0443     0.0   13.2968
2167    2161.0  255.835      9.3607   7.0450     0.0   13.2826
2177    2171.0  256.235      9.3605   7.0448     0.0   13.2880
2187    2181.0  256.635      9.3605   7.0448     0.0   13.2951
2197    2191.0  257.035      9.3603   7.0446     0.0   13.2722
2207    2201.0  257.435      9.3597   7.0440     0.0   13.2772
2217    2211.0  257.835      9.3603   7.0446     0.0   13.2742
2227    2221.0  258.235      9.3601   7.0444     0.0   13.2527
2237    2231.0  258.635      9.3598   7.0441     0.0   13.2590
2247    2241.0  259.035      9.3605   7.0448     0.0   13.2649
2257    2251.0  259.435      9.3603   7.0446     0.0   13.2562
2267    2261.0  259.835      9.3608   7.0451     0.0   13.2483
2277    2271.0  260.235      9.3610   7.0453     0.0   13.2457
2287    2281.0  260.635      9.3607   7.0450     0.0   13.2469
2297    2291.0  261.035      9.3604   7.0447     0.0   13.2422
2307    2301.0  261.435      9.3601   7.0444     0.0   13.2347
2317    2311.0  261.835      9.3607   7.0449     0.0   13.2352
2327    2321.0  262.235      9.3604   7.0447     0.0   13.2289
2337    2331.0  262.635      9.3607   7.0450     0.0   13.2320
2354    2341.0  263.100      9.3715   7.0557     0.0   13.4485
2364    2351.0  263.500      9.3857   7.0699     0.0   13.7145
2374    2361.0  263.900      9.3985   7.0828     0.0   13.9561
2384    2371.0  264.300      9.4115   7.0958     0.0   14.1874
2394    2381.0  264.700      9.4254   7.1096     0.0   14.4361
2404    2391.0  265.100      9.4384   7.1227     0.0   14.6531
2414    2401.0  265.500      9.4518   7.1361     0.0   14.8705
2424    2411.0  265.900      9.4656   7.1498     0.0   15.0820
2434    2421.0  266.300      9.4789   7.1632     0.0   15.2904
2444    2431.0  266.700      9.4918   7.1761     0.0   15.5070
2454    2441.0  267.100      9.5057   7.1900     0.0   15.6882
2464    2451.0  267.500      9.5186   7.2029     0.0   15.8827
2474    2461.0  267.900      9.5321   7.2164     0.0   16.0803
2484    2471.0  268.300      9.5455   7.2298     0.0   16.2692
2494    2481.0  268.700      9.5585   7.2428     0.0   16.4340
2504    2491.0  269.100      9.5719   7.2562     0.0   16.6282
2514    2501.0  269.500      9.5851   7.2694     0.0   16.7975
2524    2511.0  269.900      9.5987   7.2830     0.0   16.9871
2534    2521.0  270.300      9.6119   7.2962     0.0   17.1587
2544    2531.0  270.700      9.6255   7.3098     0.0   17.3582
2554    2541.0  271.100      9.6386   7.3229     0.0   17.5310
2564    2551.0  271.500      9.6518   7.3361     0.0   17.7099
2574    2561.0  271.900      9.6654   7.3496     0.0   17.8940
2584    2571.0  272.300      9.6787   7.3630     0.0   18.0502
2594    2581.0  272.700      9.6920   7.3763     0.0   18.2300
2604    2591.0  273.100      9.7052   7.3895     0.0   18.3820
2614    2601.0  273.500      9.7182   7.4025     0.0   18.5451
2624    2611.0  273.900      9.7317   7.4160     0.0   18.7132
2634    2621.0  274.300      9.7451   7.4294     0.0   18.8743
2644    2631.0  274.700      9.7579   7.4422     0.0   19.0198
2654    2641.0  275.100      9.7714   7.4557     0.0   19.1917
2664    2651.0  275.500      9.7850   7.4693     0.0   19.3540
2674    2661.0  275.900      9.7984   7.4826     0.0   19.4850
2684    2671.0  276.300      9.8118   7.4961     0.0   19.5453
2694    2681.0  276.700      9.8248   7.5091     0.0   19.6217
2704    2691.0  277.100      9.8385   7.5228     0.0   19.7226
2714    2701.0  277.500      9.8520   7.5363     0.0   19.8507
2724    2711.0  277.900      9.8650   7.5492     0.0   19.9900
2734    2721.0  278.300      9.8783   7.5626     0.0   20.0884
2744    2731.0  278.700      9.8924   7.5767     0.0   20.2051
2754    2741.0  279.100      9.9057   7.5900     0.0   20.3515
2764    2751.0  279.500      9.9189   7.6032     0.0   20.4582
2774    2761.0  279.900      9.9316   7.6159     0.0   20.6295
2784    2771.0  280.300      9.9445   7.6288     0.0   20.7476
2794    2781.0  280.700      9.9584   7.6427     0.0   20.9100
2804    2791.0  281.100      9.9718   7.6561     0.0   21.0402
2814    2801.0  281.500      9.9847   7.6690     0.0   21.1838
2824    2811.0  281.900      9.9982   7.6825     0.0   21.3182
2834    2821.0  282.300     10.0118   7.6961     0.0   21.4682
2844    2831.0  282.700     10.0250   7.7093     0.0   21.6183
2854    2841.0  283.100     10.0382   7.7225     0.0   21.7460
2864    2851.0  283.500     10.0518   7.7361     0.0   21.8924
2874    2861.0  283.900     10.0652   7.7495     0.0   22.0305
2884    2871.0  284.300     10.0783   7.7626     0.0   22.1654
2894    2881.0  284.700     10.0915   7.7758     0.0   22.3099
2904    2891.0  285.100     10.1050   7.7893     0.0   22.4454
2914    2901.0  285.500     10.1182   7.8025     0.0   22.5931
2924    2911.0  285.900     10.1317   7.8160     0.0   22.7243
2934    2921.0  286.300     10.1453   7.8296     0.0   22.8816
2944    2931.0  286.700     10.1584   7.8427     0.0   23.0158
2954    2941.0  287.100     10.1713   7.8556     0.0   23.1213
2964    2951.0  287.500     10.1849   7.8692     0.0   23.2897
2974    2961.0  287.900     10.1986   7.8829     0.0   23.4029
2984    2971.0  288.300     10.2113   7.8956     0.0   23.5359
2994    2981.0  288.700     10.2249   7.9092     0.0   23.6773
3004    2991.0  289.100     10.2385   7.9227     0.0   23.8161
3014    3001.0  289.500     10.2516   7.9359     0.0   23.9519
3024    3011.0  289.900     10.2654   7.9497     0.0   24.0982
3034    3021.0  290.300     10.2777   7.9620     0.0   24.2365
3044    3031.0  290.700     10.2913   7.9756     0.0   24.3855
3054    3041.0  291.100     10.3043   7.9886     0.0   24.5224
3064    3051.0  291.500     10.3188   8.0031     0.0   24.6860
3074    3061.0  291.900     10.3316   8.0159     0.0   24.8287
3084    3071.0  292.300     10.3447   8.0289     0.0   24.9498
3100    3081.0  292.715     10.3368   8.0211     0.0   24.6031
3110    3091.0  293.115     10.3368   8.0211     0.0   24.5416
3120    3101.0  293.515     10.3362   8.0205     0.0   24.4749
3130    3111.0  293.915     10.3363   8.0206     0.0   24.4063
3140    3121.0  294.315     10.3370   8.0213     0.0   24.3460
3150    3131.0  294.715     10.3367   8.0210     0.0   24.2883
3160    3141.0  295.115     10.3372   8.0215     0.0   24.2536
3170    3151.0  295.515     10.3368   8.0211     0.0   24.2075
3180    3161.0  295.915     10.3374   8.0217     0.0   24.1611
3190    3171.0  296.315     10.3368   8.0211     0.0   24.1157
3200    3181.0  296.715     10.3369   8.0212     0.0   24.0730
3210    3191.0  297.115     10.3366   8.0209     0.0   24.0353
3220    3201.0  297.515     10.3366   8.0209     0.0   23.9980
3230    3211.0  297.915     10.3368   8.0211     0.0   23.9655
3240    3221.0  298.315     10.3368   8.0211     0.0   23.9310
3250    3231.0  298.715     10.3369   8.0212     0.0   23.9222
3260    3241.0  299.115     10.3375   8.0218     0.0   23.8931
3270    3251.0  299.515     10.3362   8.0205     0.0   23.8483
3280    3261.0  299.915     10.3371   8.0214     0.0   23.8280
3290    3271.0  300.315     10.3366   8.0209     0.0   23.8017
3300    3281.0  300.715     10.3369   8.0212     0.0   23.7787
3310    3291.0  301.115     10.3367   8.0210     0.0   23.7463
3320    3301.0  301.515     10.3373   8.0216     0.0   23.7166
3330    3311.0  301.915     10.3370   8.0213     0.0   23.7155
3340    3321.0  302.315     10.3370   8.0213     0.0   23.6741
3351    3331.0  302.715     10.3371   8.0214     0.0   23.6589
3361    3341.0  303.115     10.3369   8.0212     0.0   23.6402
3371    3351.0  303.515     10.3370   8.0213     0.0   23.6160
3381    3361.0  303.915     10.3366   8.0209     0.0   23.5785
3391    3371.0  304.315     10.3370   8.0213     0.0   23.5750
3401    3381.0  304.715     10.3369   8.0212     0.0   23.5467
3411    3391.0  305.115     10.3375   8.0218     0.0   23.5405
3421    3401.0  305.515     10.3369   8.0212     0.0   23.5155
3431    3411.0  305.915     10.3369   8.0211     0.0   23.5021
3441    3421.0  306.315     10.3364   8.0207     0.0   23.4946
3451    3431.0  306.715     10.3372   8.0214     0.0   23.4651
3461    3441.0  307.115     10.3364   8.0207     0.0   23.4394
3471    3451.0  307.515     10.3363   8.0206     0.0   23.4224
3481    3461.0  307.915     10.3368   8.0211     0.0   23.4108
3491    3471.0  308.315     10.3372   8.0214     0.0   23.4051
3501    3481.0  308.715     10.3364   8.0207     0.0   23.3927
3511    3491.0  309.115     10.3372   8.0215     0.0   23.3677
3521    3501.0  309.515     10.3370   8.0213     0.0   23.3537
3531    3511.0  309.915     10.3371   8.0213     0.0   23.3416
3541    3521.0  310.315     10.3375   8.0218     0.0   23.3355
3551    3531.0  310.715     10.3368   8.0211     0.0   23.3253
3561    3541.0  311.115     10.3371   8.0214     0.0   23.3057
3571    3551.0  311.515     10.3374   8.0217     0.0   23.2870
3581    3561.0  311.915     10.3365   8.0208     0.0   23.2590
3591    3571.0  312.315     10.3368   8.0211     0.0   23.2475
3601    3581.0  312.715     10.3373   8.0216     0.0   23.2465
3611    3591.0  313.115     10.3363   8.0206     0.0   23.2268
3621    3601.0  313.515     10.3372   8.0214     0.0   23.2137
3631    3611.0  313.915     10.3370   8.0213     0.0   23.1935
3641    3621.0  314.315     10.3371   8.0214     0.0   23.1834
3651    3631.0  314.715     10.3372   8.0215     0.0   23.1779
3661    3641.0  315.115     10.3370   8.0213     0.0   23.1696
3671    3651.0  315.515     10.3372   8.0215     0.0   23.1817
3681    3661.0  315.915     10.3369   8.0212     0.0   23.1464
3691    3671.0  316.315     10.3374   8.0217     0.0   23.1265
3701    3681.0  316.715     10.3371   8.0213     0.0   23.1547
3711    3691.0  317.115     10.3368   8.0211     0.0   23.1127
3721    3701.0  317.515     10.3372   8.0215     0.0   23.1121
3731    3711.0  317.915     10.3371   8.0214     0.0   23.1096
3741    3721.0  318.315     10.3368   8.0211     0.0   23.0563
3751    3731.0  318.715     10.3367   8.0210     0.0   23.0604
3761    3741.0  319.115     10.3370   8.0213     0.0   23.0918
3771    3751.0  319.515     10.3368   8.0211     0.0   23.0693
3781    3761.0  319.915     10.3371   8.0214     0.0   23.0375
3791    3771.0  320.315     10.3369   8.0212     0.0   23.0410
3801    3781.0  320.715     10.3374   8.0217     0.0   23.0466
3811    3791.0  321.115     10.3368   8.0211     0.0   23.0304
3821    3801.0  321.515     10.3370   8.0213     0.0   23.0160
3831    3811.0  321.915     10.3364   8.0207     0.0   23.0207
3841    3821.0  322.315     10.3375   8.0217     0.0   22.9862
3851    3831.0  322.715     10.3363   8.0206     0.0   22.9701
3861    3841.0  323.115     10.3371   8.0214     0.0   22.9581
3871    3851.0  323.515     10.3364   8.0207     0.0   22.9654
3881    3861.0  323.915     10.3368   8.0211     0.0   22.9498
3891    3871.0  324.315     10.3367   8.0210     0.0   22.9426
3901    3881.0  324.715     10.3366   8.0209     0.0   22.9402
3911    3891.0  325.115     10.3369   8.0212     0.0   22.9187
3921    3901.0  325.515     10.3370   8.0213     0.0   22.9104
3931    3911.0  325.915     10.3370   8.0213     0.0   22.9107
3941    3921.0  326.315     10.3367   8.0210     0.0   22.9283
3951    3931.0  326.715     10.3368   8.0210     0.0   22.9184
3961    3941.0  327.115     10.3367   8.0210     0.0   22.8759
3971    3951.0  327.515     10.3370   8.0213     0.0   22.8749
3981    3961.0  327.915     10.3369   8.0212     0.0   22.8604
3991    3971.0  328.315     10.3375   8.0217     0.0   22.8539
4001    3981.0  328.715     10.3370   8.0213     0.0   22.8524
4011    3991.0  329.115     10.3372   8.0215     0.0   22.8345
4021    4001.0  329.515     10.3369   8.0212     0.0   22.8241
4031    4011.0  329.915     10.3371   8.0214     0.0   22.8053
4041    4021.0  330.315     10.3365   8.0208     0.0   22.7976
4051    4031.0  330.715     10.3373   8.0215     0.0   22.7969
4061    4041.0  331.115     10.3367   8.0210     0.0   22.7883
4071    4051.0  331.515     10.3368   8.0211     0.0   22.7690
4081    4061.0  331.915     10.3371   8.0213     0.0   22.7632
4091    4071.0  332.315     10.3371   8.0214     0.0   22.7619
4101    4081.0  332.715     10.3365   8.0208     0.0   22.7697
4111    4091.0  333.115     10.3373   8.0216     0.0   22.7510
4121    4101.0  333.515     10.3368   8.0210     0.0   22.7473
4131    4111.0  333.915     10.3368   8.0210     0.0   22.7345
4141    4121.0  334.315     10.3370   8.0212     0.0   22.7355
4151    4131.0  334.715     10.3366   8.0209     0.0   22.7258
4161    4141.0  335.115     10.3370   8.0213     0.0   22.7118
4171    4151.0  335.515     10.3370   8.0213     0.0   22.7080
4181    4161.0  335.915     10.3369   8.0212     0.0   22.7013
4191    4171.0  336.315     10.3372   8.0215     0.0   22.7036
4201    4181.0  336.715     10.3377   8.0220     0.0   22.6740
4211    4191.0  337.115     10.3363   8.0205     0.0   22.6829
4221    4201.0  337.515     10.3366   8.0208     0.0   22.6909
4231    4211.0  337.915     10.3368   8.0211     0.0   22.6746
4241    4221.0  338.315     10.3359   8.0202     0.0   22.6625
4251    4231.0  338.715     10.3370   8.0213     0.0   22.6617
4261    4241.0  339.115     10.3375   8.0218     0.0   22.6609
4271    4251.0  339.515     10.3369   8.0212     0.0   22.6448
4281    4261.0  339.915     10.3369   8.0212     0.0   22.6394
4291    4271.0  340.315     10.3370   8.0213     0.0   22.6165
4301    4281.0  340.715     10.3367   8.0210     0.0   22.6210
4311    4291.0  341.115     10.3372   8.0215     0.0   22.6213
4321    4301.0  341.515     10.3367   8.0210     0.0   22.6360
4331    4311.0  341.915     10.3369   8.0212     0.0   22.6250
4341    4321.0  342.315     10.3368   8.0211     0.0   22.6118
4351    4331.0  342.715     10.3370   8.0213     0.0   22.6164
4361    4341.0  343.115     10.3367   8.0210     0.0   22.5998
4371    4351.0  343.515     10.3368   8.0211     0.0   22.5727
4381    4361.0  343.915     10.3363   8.0206     0.0   22.5458
4391    4371.0  344.315     10.3371   8.0214     0.0   22.5662
4401    4381.0  344.715     10.3369   8.0212     0.0   22.5543
4411    4391.0  345.115     10.3369   8.0212     0.0   22.5477
4421    4401.0  345.515     10.3366   8.0209     0.0   22.5267
4431    4411.0  345.915     10.3371   8.0213     0.0   22.5309
4441    4421.0  346.315     10.3371   8.0214     0.0   22.5121
4451    4431.0  346.715     10.3369   8.0212     0.0   22.5084
4461    4441.0  347.115     10.3367   8.0209     0.0   22.5122
4471    4451.0  347.515     10.3367   8.0210     0.0   22.4969
4481    4461.0  347.915     10.3369   8.0212     0.0   22.4840
4491    4471.0  348.315     10.3368   8.0211     0.0   22.4849
4501    4481.0  348.715     10.3369   8.0212     0.0   22.4883
4511    4491.0  349.115     10.3371   8.0214     0.0   22.4751
4521    4501.0  349.515     10.3368   8.0211     0.0   22.4774
4531    4511.0  349.915     10.3363   8.0206     0.0   22.4602
4541    4521.0  350.315     10.3369   8.0212     0.0   22.4651
4551    4531.0  350.715     10.3370   8.0213     0.0   22.4626
4561    4541.0  351.115     10.3369   8.0212     0.0   22.4532
4571    4551.0  351.515     10.3369   8.0212     0.0   22.4550
4581    4561.0  351.915     10.3368   8.0211     0.0   22.4464
4591    4571.0  352.315     10.3364   8.0207     0.0   22.4379
4601    4581.0  352.715     10.3369   8.0212     0.0   22.4275
4611    4591.0  353.115     10.3369   8.0212     0.0   22.4243
4621    4601.0  353.515     10.3370   8.0213     0.0   22.4368
4631    4611.0  353.915     10.3372   8.0215     0.0   22.4234
4641    4621.0  354.315     10.3369   8.0212     0.0   22.4115
4651    4631.0  354.715     10.3366   8.0209     0.0   22.3997
4661    4641.0  355.115     10.3364   8.0207     0.0   22.4013
4671    4651.0  355.515     10.3370   8.0213     0.0   22.3818
4681    4661.0  355.915     10.3370   8.0213     0.0   22.3733
4691    4671.0  356.315     10.3369   8.0212     0.0   22.3723
4701    4681.0  356.715     10.3369   8.0212     0.0   22.3719
4711    4691.0  357.115     10.3370   8.0213     0.0   22.3781
4721    4701.0  357.515     10.3370   8.0213     0.0   22.3750
4731    4711.0  357.915     10.3366   8.0208     0.0   22.3602
4741    4721.0  358.315     10.3371   8.0214     0.0   22.3548
4751    4731.0  358.715     10.3367   8.0210     0.0   22.3430
4761    4741.0  359.115     10.3370   8.0213     0.0   22.3612
4771    4751.0  359.515     10.3370   8.0213     0.0   22.3601
4781    4761.0  359.915     10.3373   8.0216     0.0   22.3374
4791    4771.0  360.315     10.3368   8.0211     0.0   22.3340
4801    4781.0  360.715     10.3370   8.0213     0.0   22.3300
4811    4791.0  361.115     10.3369   8.0212     0.0   22.3381
4821    4801.0  361.515     10.3366   8.0208     0.0   22.3257
4831    4811.0  361.915     10.3370   8.0213     0.0   22.3214
4841    4821.0  362.315     10.3370   8.0213     0.0   22.3249
4851    4831.0  362.715     10.3366   8.0209     0.0   22.3062
4861    4841.0  363.115     10.3366   8.0209     0.0   22.2901
4871    4851.0  363.515     10.3371   8.0214     0.0   22.2735
4881    4861.0  363.915     10.3367   8.0210     0.0   22.2952
4891    4871.0  364.315     10.3371   8.0214     0.0   22.2900
4901    4881.0  364.715     10.3369   8.0212     0.0   22.2859
4911    4891.0  365.115     10.3371   8.0214     0.0   22.2797
4921    4901.0  365.515     10.3370   8.0213     0.0   22.2747
4931    4911.0  365.915     10.3371   8.0214     0.0   22.2789
4941    4921.0  366.315     10.3368   8.0211     0.0   22.2750
4951    4931.0  366.715     10.3371   8.0214     0.0   22.2526
4961    4941.0  367.115     10.3366   8.0209     0.0   22.2681
4971    4951.0  367.515     10.3365   8.0208     0.0   22.2697
4981    4961.0  367.915     10.3369   8.0212     0.0   22.2721
4991    4971.0  368.315     10.3363   8.0205     0.0   22.2462
5001    4981.0  368.715     10.3367   8.0210     0.0   22.2583
5011    4991.0  369.115     10.3372   8.0215     0.0   22.2482
5021    5001.0  369.515     10.3365   8.0208     0.0   22.2380
5031    5011.0  369.915     10.3378   8.0220     0.0   22.2520
5041    5021.0  370.315     10.3372   8.0215     0.0   22.2438
5051    5031.0  370.715     10.3369   8.0212     0.0   22.2350
5061    5041.0  371.115     10.3369   8.0212     0.0   22.2347
5071    5051.0  371.515     10.3373   8.0215     0.0   22.2331
5081    5061.0  371.915     10.3366   8.0209     0.0   22.2360
5091    5071.0  372.315     10.3369   8.0212     0.0   22.2401
5101    5081.0  372.715     10.3364   8.0207     0.0   22.2123
5111    5091.0  373.115     10.3370   8.0213     0.0   22.2111
5121    5101.0  373.515     10.3371   8.0214     0.0   22.2105
5131    5111.0  373.915     10.3366   8.0209     0.0   22.2179
5141    5121.0  374.315     10.3371   8.0213     0.0   22.2120
5151    5131.0  374.715     10.3370   8.0213     0.0   22.2002
5161    5141.0  375.115     10.3369   8.0212     0.0   22.1866
5171    5151.0  375.515     10.3364   8.0207     0.0   22.1745
5181    5161.0  375.915     10.3368   8.0211     0.0   22.1668
5191    5171.0  376.315     10.3369   8.0211     0.0   22.1597
5201    5181.0  376.715     10.3368   8.0210     0.0   22.1667
5211    5191.0  377.115     10.3371   8.0213     0.0   22.1493
5221    5201.0  377.515     10.3367   8.0210     0.0   22.1541
5231    5211.0  377.915     10.3370   8.0213     0.0   22.1780
5241    5221.0  378.315     10.3366   8.0209     0.0   22.1841
5251    5231.0  378.715     10.3367   8.0210     0.0   22.1772
5261    5241.0  379.115     10.3370   8.0213     0.0   22.1890
5271    5251.0  379.515     10.3369   8.0212     0.0   22.1920
5281    5261.0  379.915     10.3370   8.0213     0.0   22.1645
5291    5271.0  380.315     10.3366   8.0209     0.0   22.1323
5301    5281.0  380.715     10.3368   8.0211     0.0   22.1429
5311    5291.0  381.115     10.3363   8.0206     0.0   22.1240
5321    5301.0  381.515     10.3369   8.0212     0.0   22.1039
5331    5311.0  381.915     10.3373   8.0216     0.0   22.1166
5341    5321.0  382.315     10.3374   8.0217     0.0   22.1104
5351    5331.0  382.715     10.3363   8.0205     0.0   22.1105
5361    5341.0  383.115     10.3362   8.0205     0.0   22.1068
5371    5351.0  383.515     10.3371   8.0214     0.0   22.1109
5381    5361.0  383.915     10.3363   8.0206     0.0   22.1141
5391    5371.0  384.315     10.3364   8.0207     0.0   22.0945
5401    5381.0  384.715     10.3369   8.0211     0.0   22.1142
5411    5391.0  385.115     10.3368   8.0210     0.0   22.0936
5421    5401.0  385.515     10.3369   8.0212     0.0   22.0892
5431    5411.0  385.915     10.3367   8.0210     0.0   22.0845
5441    5421.0  386.315     10.3367   8.0210     0.0   22.0785
5451    5431.0  386.715     10.3373   8.0216     0.0   22.0796
5461    5441.0  387.115     10.3370   8.0213     0.0   22.0784
5471    5451.0  387.515     10.3375   8.0218     0.0   22.0764
5481    5461.0  387.915     10.3371   8.0214     0.0   22.0723
5491    5471.0  388.315     10.3368   8.0211     0.0   22.0809
5501    5481.0  388.715     10.3368   8.0211     0.0   22.0482
5511    5491.0  389.115     10.3367   8.0210     0.0   22.0588
5521    5501.0  389.515     10.3367   8.0210     0.0   22.0662
5531    5511.0  389.915     10.3367   8.0210     0.0   22.0501
5541    5521.0  390.315     10.3364   8.0207     0.0   22.0480
5551    5531.0  390.715     10.3368   8.0211     0.0   22.0544
5561    5541.0  391.115     10.3371   8.0214     0.0   22.0517
5571    5551.0  391.515     10.3368   8.0210     0.0   22.0425
5581    5561.0  391.915     10.3369   8.0211     0.0   22.0219
5591    5571.0  392.315     10.3369   8.0211     0.0   22.0257
5601    5581.0  392.715     10.3368   8.0211     0.0   22.0266
5611    5591.0  393.115     10.3369   8.0212     0.0   22.0186
5621    5601.0  393.515     10.3368   8.0210     0.0   22.0250
5631    5611.0  393.915     10.3366   8.0209     0.0   22.0056
5641    5621.0  394.315     10.3369   8.0211     0.0   22.0152
5651    5631.0  394.715     10.3369   8.0212     0.0   21.9996
5661    5641.0  395.115     10.3364   8.0207     0.0   21.9997
5671    5651.0  395.515     10.3368   8.0211     0.0   22.0145
5681    5661.0  395.915     10.3371   8.0214     0.0   21.9901
5691    5671.0  396.315     10.3374   8.0217     0.0   21.9898
5701    5681.0  396.715     10.3368   8.0211     0.0   21.9905
5711    5691.0  397.115     10.3368   8.0211     0.0   21.9856
5721    5701.0  397.515     10.3370   8.0213     0.0   21.9567
5731    5711.0  397.915     10.3367   8.0210     0.0   21.9564
5741    5721.0  398.315     10.3372   8.0215     0.0   21.9722
5751    5731.0  398.715     10.3367   8.0210     0.0   21.9531
5761    5741.0  399.115     10.3371   8.0214     0.0   21.9566
5771    5751.0  399.515     10.3370   8.0212     0.0   21.9509
5781    5761.0  399.915     10.3370   8.0213     0.0   21.9595
5791    5771.0  400.315     10.3366   8.0209     0.0   21.9444
5801    5781.0  400.715     10.3368   8.0210     0.0   21.9572
5811    5791.0  401.115     10.3369   8.0212     0.0   21.9502
5821    5801.0  401.515     10.3368   8.0211     0.0   21.9567
5831    5811.0  401.915     10.3369   8.0211     0.0   21.9452
5841    5821.0  402.315     10.3370   8.0212     0.0   21.9597
5851    5831.0  402.715     10.3366   8.0209     0.0   21.9477
5861    5841.0  403.115     10.3366   8.0209     0.0   21.9500
5871    5851.0  403.515     10.3370   8.0212     0.0   21.9341
5881    5861.0  403.915     10.3362   8.0205     0.0   21.9536
5891    5871.0  404.315     10.3368   8.0211     0.0   21.9332
5901    5881.0  404.715     10.3364   8.0207     0.0   21.8991
5911    5891.0  405.115     10.3365   8.0208     0.0   21.9160
5921    5901.0  405.515     10.3367   8.0210     0.0   21.9264
5931    5911.0  405.915     10.3365   8.0208     0.0   21.9055
5941    5921.0  406.315     10.3365   8.0208     0.0   21.9008
5951    5931.0  406.715     10.3364   8.0207     0.0   21.9102
5961    5941.0  407.115     10.3372   8.0215     0.0   21.8848
5971    5951.0  407.515     10.3371   8.0213     0.0   21.8837
5981    5961.0  407.915     10.3369   8.0212     0.0   21.9004
5991    5971.0  408.315     10.3370   8.0213     0.0   21.8965
6001    5981.0  408.715     10.3367   8.0210     0.0   21.8778
6011    5991.0  409.115     10.3366   8.0209     0.0   21.8847
6021    6001.0  409.515     10.3369   8.0212     0.0   21.8790
6031    6011.0  409.915     10.3366   8.0209     0.0   21.8646
6041    6021.0  410.315     10.3361   8.0204     0.0   21.8506
6051    6031.0  410.715     10.3366   8.0209     0.0   21.8614
6061    6041.0  411.115     10.3367   8.0209     0.0   21.8526
6078    6051.0  411.585     10.3434   8.0277     0.0   22.0467
6088    6061.0  411.985     10.3563   8.0405     0.0   22.3779
6098    6071.0  412.385     10.3703   8.0546     0.0   22.7352
6108    6081.0  412.785     10.3832   8.0674     0.0   23.0536
6118    6091.0  413.185     10.3960   8.0803     0.0   23.3704
6128    6101.0  413.585     10.4093   8.0936     0.0   23.6644
6138    6111.0  413.985     10.4227   8.1069     0.0   23.9565
6148    6121.0  414.385     10.4364   8.1207     0.0   24.2100
6158    6131.0  414.785     10.4495   8.1338     0.0   24.4779
6168    6141.0  415.185     10.4626   8.1469     0.0   24.7470
6178    6151.0  415.585     10.4760   8.1603     0.0   24.9912
6188    6161.0  415.985     10.4900   8.1743     0.0   25.2497
6198    6171.0  416.385     10.5028   8.1871     0.0   25.4955
6208    6181.0  416.785     10.5160   8.2003     0.0   25.7284
6218    6191.0  417.185     10.5295   8.2138     0.0   25.9458
6228    6201.0  417.585     10.5429   8.2272     0.0   26.1703
6238    6211.0  417.985     10.5562   8.2405     0.0   26.3675
6248    6221.0  418.385     10.5700   8.2543     0.0   26.5590
6258    6231.0  418.785     10.5825   8.2668     0.0   26.7254
6268    6241.0  419.185     10.5961   8.2804     0.0   26.9004
6278    6251.0  419.585     10.6094   8.2936     0.0   27.1139
6288    6261.0  419.985     10.6232   8.3075     0.0   27.3048
6298    6271.0  420.385     10.6366   8.3209     0.0   27.4605
6308    6281.0  420.785     10.6492   8.3335     0.0   27.6144
6318    6291.0  421.185     10.6632   8.3475     0.0   27.7510
6328    6301.0  421.585     10.6768   8.3610     0.0   27.9149
6338    6311.0  421.985     10.6904   8.3747     0.0   28.0699
6348    6321.0  422.385     10.7029   8.3872     0.0   28.2147
6358    6331.0  422.785     10.7164   8.4007     0.0   28.3890
6368    6341.0  423.185     10.7297   8.4139     0.0   28.5486
6378    6351.0  423.585     10.7430   8.4273     0.0   28.6728
6388    6361.0  423.985     10.7560   8.4403     0.0   28.8089
6398    6371.0  424.385     10.7696   8.4538     0.0   28.9362
6408    6381.0  424.785     10.7826   8.4669     0.0   29.0533
6418    6391.0  425.185     10.7963   8.4805     0.0   29.1675
6428    6401.0  425.585     10.8104   8.4947     0.0   29.2660
6438    6411.0  425.985     10.8234   8.5077     0.0   29.3502
6448    6421.0  426.385     10.8359   8.5202     0.0   29.3485
6458    6431.0  426.785     10.8501   8.5344     0.0   29.3650
6468    6441.0  427.185     10.8630   8.5473     0.0   29.4365
6478    6451.0  427.585     10.8764   8.5607     0.0   29.5564
6488    6461.0  427.985     10.8891   8.5733     0.0   29.6693
6498    6471.0  428.385     10.9030   8.5872     0.0   29.7965
6508    6481.0  428.785     10.9162   8.6005     0.0   29.9167
6518    6491.0  429.185     10.9296   8.6139     0.0   30.0610
6528    6501.0  429.585     10.9429   8.6272     0.0   30.1735
6538    6511.0  429.985     10.9565   8.6408     0.0   30.2874
6548    6521.0  430.385     10.9696   8.6539     0.0   30.4269
6558    6531.0  430.785     10.9823   8.6666     0.0   30.5594
6568    6541.0  431.185     10.9961   8.6804     0.0   30.7017
6578    6551.0  431.585     11.0090   8.6933     0.0   30.8253
6588    6561.0  431.985     11.0228   8.7071     0.0   30.9564
6598    6571.0  432.385     11.0361   8.7204     0.0   31.1017
6608    6581.0  432.785     11.0489   8.7332     0.0   31.2155
6618    6591.0  433.185     11.0627   8.7470     0.0   31.3196
6628    6601.0  433.585     11.0760   8.7603     0.0   31.4537
6638    6611.0  433.985     11.0896   8.7739     0.0   31.5868
6648    6621.0  434.385     11.1027   8.7869     0.0   31.7134
6658    6631.0  434.785     11.1155   8.7998     0.0   31.8190
6668    6641.0  435.185     11.1291   8.8134     0.0   31.9299
6678    6651.0  435.585     11.1427   8.8270     0.0   32.0499
6688    6661.0  435.985     11.1567   8.8410     0.0   32.1655
6698    6671.0  436.385     11.1695   8.8538     0.0   32.2894
6708    6681.0  436.785     11.1836   8.8679     0.0   32.3777
6718    6691.0  437.185     11.1960   8.8803     0.0   32.5147
6728    6701.0  437.585     11.2095   8.8937     0.0   32.6132
6738    6711.0  437.985     11.2232   8.9074     0.0   32.7221
6748    6721.0  438.385     11.2356   8.9199     0.0   32.8488
6758    6731.0  438.785     11.2489   8.9332     0.0   32.9653
6768    6741.0  439.185     11.2626   8.9469     0.0   33.0747
6778    6751.0  439.585     11.2763   8.9606     0.0   33.2164
6788    6761.0  439.985     11.2889   8.9732     0.0   33.3320
6798    6771.0  440.385     11.3025   8.9868     0.0   33.4496
6808    6781.0  440.785     11.3162   9.0005     0.0   33.5944
6818    6791.0  441.185     11.3297   9.0140     0.0   33.7254
6828    6801.0  441.585     11.3423   9.0266     0.0   33.8563
6838    6811.0  441.985     11.3560   9.0403     0.0   33.9769
6848    6821.0  442.385     11.3692   9.0535     0.0   34.1018
6858    6831.0  442.785     11.3822   9.0665     0.0   34.2381
6868    6841.0  443.185     11.3957   9.0800     0.0   34.3599
6878    6851.0  443.585     11.4094   9.0937     0.0   34.5056
6888    6861.0  443.985     11.4219   9.1062     0.0   34.6236
6898    6871.0  444.385     11.4359   9.1202     0.0   34.7621
6908    6881.0  444.785     11.4493   9.1336     0.0   34.9029
6918    6891.0  445.174     11.4618   9.1461     0.0   35.0034
6934    6901.0  445.570     11.4493   9.1336     0.0   34.5612
6944    6911.0  445.970     11.4494   9.1337     0.0   34.4788
6954    6921.0  446.370     11.4488   9.1331     0.0   34.4139
6964    6931.0  446.770     11.4491   9.1334     0.0   34.3710
6974    6941.0  447.170     11.4492   9.1335     0.0   34.2985
6984    6951.0  447.570     11.4490   9.1333     0.0   34.2470
6994    6961.0  447.970     11.4488   9.1331     0.0   34.2187
7004    6971.0  448.370     11.4493   9.1336     0.0   34.1671
7014    6981.0  448.770     11.4499   9.1342     0.0   34.1320
7024    6991.0  449.170     11.4486   9.1329     0.0   34.0823
7034    7001.0  449.570     11.4491   9.1334     0.0   34.0486
7044    7011.0  449.970     11.4494   9.1337     0.0   34.0219
7054    7021.0  450.370     11.4494   9.1337     0.0   33.9888
7064    7031.0  450.770     11.4492   9.1334     0.0   33.9498
7074    7041.0  451.170     11.4491   9.1334     0.0   33.9001
7084    7051.0  451.570     11.4491   9.1334     0.0   33.8769
7094    7061.0  451.970     11.4493   9.1336     0.0   33.8498
7104    7071.0  452.370     11.4493   9.1336     0.0   33.8251
7114    7081.0  452.770     11.4495   9.1338     0.0   33.7849
7124    7091.0  453.170     11.4490   9.1333     0.0   33.7613
7134    7101.0  453.570     11.4496   9.1339     0.0   33.7306
7144    7111.0  453.970     11.4493   9.1336     0.0   33.7271
7154    7121.0  454.370     11.4487   9.1330     0.0   33.7098
7164    7131.0  454.770     11.4502   9.1344     0.0   33.6750
7174    7141.0  455.170     11.4495   9.1338     0.0   33.6854
7184    7151.0  455.570     11.4493   9.1336     0.0   33.6303
7194    7161.0  455.970     11.4496   9.1339     0.0   33.6127
7205    7171.0  456.370     11.4489   9.1332     0.0   33.5808
7215    7181.0  456.770     11.4498   9.1341     0.0   33.5578
7225    7191.0  457.170     11.4496   9.1339     0.0   33.5417
7235    7201.0  457.570     11.4487   9.1330     0.0   33.5267
7245    7211.0  457.970     11.4489   9.1332     0.0   33.4871
7255    7221.0  458.370     11.4494   9.1337     0.0   33.4755
7265    7231.0  458.770     11.4496   9.1339     0.0   33.4441
7275    7241.0  459.170     11.4496   9.1339     0.0   33.4319
7285    7251.0  459.570     11.4503   9.1346     0.0   33.4205
7295    7261.0  459.970     11.4496   9.1339     0.0   33.3970
7305    7271.0  460.370     11.4491   9.1334     0.0   33.3375
7315    7281.0  460.770     11.4491   9.1334     0.0   33.3662
7325    7291.0  461.170     11.4492   9.1335     0.0   33.3461
7335    7301.0  461.570     11.4499   9.1342     0.0   33.3364
7345    7311.0  461.970     11.4492   9.1335     0.0   33.3224
7355    7321.0  462.370     11.4489   9.1332     0.0   33.3261
7365    7331.0  462.770     11.4497   9.1340     0.0   33.3021
7375    7341.0  463.170     11.4489   9.1331     0.0   33.2769
7385    7351.0  463.570     11.4494   9.1337     0.0   33.2769
7395    7361.0  463.970     11.4491   9.1334     0.0   33.2595
7405    7371.0  464.370     11.4491   9.1334     0.0   33.2477
7415    7381.0  464.770     11.4490   9.1333     0.0   33.2334
7425    7391.0  465.170     11.4497   9.1340     0.0   33.2258
7435    7401.0  465.570     11.4493   9.1336     0.0   33.2161
7445    7411.0  465.970     11.4496   9.1339     0.0   33.1927
7455    7421.0  466.370     11.4492   9.1334     0.0   33.1893
7465    7431.0  466.770     11.4496   9.1339     0.0   33.1690
7475    7441.0  467.170     11.4493   9.1336     0.0   33.1540
7485    7451.0  467.570     11.4493   9.1336     0.0   33.1241
7495    7461.0  467.970     11.4491   9.1334     0.0   33.1163
7505    7471.0  468.370     11.4492   9.1334     0.0   33.1063
7515    7481.0  468.770     11.4501   9.1344     0.0   33.0913
7525    7491.0  469.170     11.4492   9.1335     0.0   33.0703
7535    7501.0  469.570     11.4493   9.1336     0.0   33.0502
7545    7511.0  469.970     11.4493   9.1336     0.0   33.0464
7555    7521.0  470.370     11.4488   9.1331     0.0   33.0347
7565    7531.0  470.770     11.4492   9.1335     0.0   33.0205
7575    7541.0  471.170     11.4499   9.1341     0.0   33.0222
7585    7551.0  471.570     11.4493   9.1336     0.0   32.9994
7595    7561.0  471.970     11.4493   9.1336     0.0   32.9940
7605    7571.0  472.370     11.4493   9.1336     0.0   32.9750
7615    7581.0  472.770     11.4498   9.1341     0.0   32.9611
7625    7591.0  473.170     11.4499   9.1341     0.0   32.9589
7635    7601.0  473.570     11.4495   9.1338     0.0   32.9504
7645    7611.0  473.970     11.4497   9.1340     0.0   32.9288
7655    7621.0  474.370     11.4489   9.1332     0.0   32.9156
7665    7631.0  474.770     11.4490   9.1333     0.0   32.9230
7675    7641.0  475.170     11.4488   9.1331     0.0   32.9215
7685    7651.0  475.570     11.4493   9.1336     0.0   32.9134
7695    7661.0  475.970     11.4490   9.1333     0.0   32.8950
7705    7671.0  476.370     11.4490   9.1333     0.0   32.8875
7715    7681.0  476.770     11.4497   9.1340     0.0   32.8685
7725    7691.0  477.170     11.4491   9.1334     0.0   32.8628
7735    7701.0  477.570     11.4492   9.1335     0.0   32.8574
7745    7711.0  477.970     11.4495   9.1338     0.0   32.8428
7755    7721.0  478.370     11.4493   9.1336     0.0   32.8365
7765    7731.0  478.770     11.4489   9.1332     0.0   32.8331
7775    7741.0  479.170     11.4492   9.1335     0.0   32.8139
7785    7751.0  479.570     11.4489   9.1332     0.0   32.7959
7795    7761.0  479.970     11.4495   9.1338     0.0   32.8038
7805    7771.0  480.370     11.4490   9.1333     0.0   32.7908
7815    7781.0  480.770     11.4495   9.1338     0.0   32.7769
7825    7791.0  481.170     11.4497   9.1340     0.0   32.7601
7835    7801.0  481.570     11.4490   9.1333     0.0   32.7582
7845    7811.0  481.970     11.4492   9.1335     0.0   32.7508
7855    7821.0  482.370     11.4494   9.1337     0.0   32.7466
7865    7831.0  482.770     11.4494   9.1337     0.0   32.7318
7875    7841.0  483.170     11.4496   9.1339     0.0   32.7235
7885    7851.0  483.570     11.4495   9.1338     0.0   32.7059
7895    7861.0  483.970     11.4495   9.1338     0.0   32.6852
7905    7871.0  484.370     11.4493   9.1336     0.0   32.7029
7915    7881.0  484.770     11.4493   9.1336     0.0   32.6876
7925    7891.0  485.170     11.4488   9.1331     0.0   32.6683
7935    7901.0  485.570     11.4495   9.1337     0.0   32.6780
7945    7911.0  485.970     11.4492   9.1334     0.0   32.6583
7955    7921.0  486.370     11.4496   9.1339     0.0   32.6284
7965    7931.0  486.770     11.4495   9.1338     0.0   32.6045
7975    7941.0  487.170     11.4500   9.1343     0.0   32.6163
7985    7951.0  487.570     11.4494   9.1337     0.0   32.6041
7995    7961.0  487.970     11.4496   9.1339     0.0   32.5968
8005    7971.0  488.370     11.4491   9.1334     0.0   32.6110
8015    7981.0  488.770     11.4491   9.1334     0.0   32.6091
8025    7991.0  489.170     11.4498   9.1340     0.0   32.6045
8035    8001.0  489.570     11.4487   9.1330     0.0   32.5930
8045    8011.0  489.970     11.4494   9.1337     0.0   32.5737
8055    8021.0  490.370     11.4494   9.1336     0.0   32.5889
8065    8031.0  490.770     11.4493   9.1336     0.0   32.5695
8075    8041.0  491.170     11.4491   9.1334     0.0   32.5643
8085    8051.0  491.570     11.4490   9.1333     0.0   32.5644
8095    8061.0  491.970     11.4487   9.1330     0.0   32.5440
8105    8071.0  492.370     11.4492   9.1334     0.0   32.5497
8115    8081.0  492.770     11.4494   9.1337     0.0   32.5412
8125    8091.0  493.170     11.4493   9.1336     0.0   32.5455
8135    8101.0  493.570     11.4490   9.1333     0.0   32.5354
8145    8111.0  493.970     11.4489   9.1332     0.0   32.5330
8155    8121.0  494.370     11.4496   9.1339     0.0   32.5191
8165    8131.0  494.770     11.4494   9.1337     0.0   32.5127
8175    8141.0  495.170     11.4489   9.1332     0.0   32.5055
8185    8151.0  495.570     11.4491   9.1334     0.0   32.5018
8195    8161.0  495.970     11.4489   9.1332     0.0   32.4722
8205    8171.0  496.370     11.4490   9.1333     0.0   32.5074
8215    8181.0  496.770     11.4493   9.1336     0.0   32.4865
8225    8191.0  497.170     11.4494   9.1337     0.0   32.4904
8235    8201.0  497.570     11.4494   9.1337     0.0   32.4776
8245    8211.0  497.970     11.4489   9.1332     0.0   32.4667
8255    8221.0  498.370     11.4491   9.1334     0.0   32.4649
8265    8231.0  498.770     11.4488   9.1331     0.0   32.4209
8275    8241.0  499.170     11.4490   9.1333     0.0   32.4187
8285    8251.0  499.570     11.4496   9.1339     0.0   32.4256
8295    8261.0  499.970     11.4494   9.1337     0.0   32.4194
8305    8271.0  500.370     11.4493   9.1336     0.0   32.4229
8315    8281.0  500.770     11.4492   9.1335     0.0   32.3851
8325    8291.0  501.170     11.4491   9.1334     0.0   32.3933
8335    8301.0  501.570     11.4490   9.1333     0.0   32.3961
8345    8311.0  501.970     11.4492   9.1335     0.0   32.3948
8355    8321.0  502.370     11.4485   9.1328     0.0   32.3773
8365    8331.0  502.770     11.4495   9.1338     0.0   32.3860
8375    8341.0  503.170     11.4488   9.1331     0.0   32.3826
8385    8351.0  503.570     11.4494   9.1337     0.0   32.3789
8395    8361.0  503.970     11.4488   9.1331     0.0   32.3488
8405    8371.0  504.370     11.4493   9.1336     0.0   32.3627
8415    8381.0  504.770     11.4496   9.1339     0.0   32.3496
8425    8391.0  505.170     11.4494   9.1337     0.0   32.3376
8435    8401.0  505.570     11.4497   9.1339     0.0   32.3229
8445    8411.0  505.970     11.4492   9.1335     0.0   32.3110
8455    8421.0  506.370     11.4489   9.1332     0.0   32.3065
8465    8431.0  506.770     11.4492   9.1335     0.0   32.2980
8475    8441.0  507.170     11.4489   9.1332     0.0   32.2949
8485    8451.0  507.570     11.4494   9.1336     0.0   32.2879
8495    8461.0  507.970     11.4493   9.1336     0.0   32.2863
8505    8471.0  508.370     11.4491   9.1334     0.0   32.2848
8515    8481.0  508.770     11.4488   9.1331     0.0   32.2687
8525    8491.0  509.170     11.4496   9.1339     0.0   32.2422
8535    8501.0  509.570     11.4486   9.1329     0.0   32.2539
8545    8511.0  509.970     11.4491   9.1334     0.0   32.2515
8555    8521.0  510.370     11.4493   9.1336     0.0   32.2487
8565    8531.0  510.770     11.4489   9.1332     0.0   32.2382
8575    8541.0  511.170     11.4487   9.1330     0.0   32.2368
8585    8551.0  511.570     11.4493   9.1336     0.0   32.2272
8595    8561.0  511.970     11.4492   9.1335     0.0   32.2210
8605    8571.0  512.370     11.4490   9.1333     0.0   32.2254
8615    8581.0  512.770     11.4497   9.1340     0.0   32.2239
8625    8591.0  513.170     11.4492   9.1335     0.0   32.2172
8635    8601.0  513.570     11.4489   9.1331     0.0   32.2320
8645    8611.0  513.970     11.4494   9.1337     0.0   32.2142
8655    8621.0  514.370     11.4491   9.1334     0.0   32.2121
8665    8631.0  514.770     11.4494   9.1337     0.0   32.2099
8675    8641.0  515.170     11.4492   9.1335     0.0   32.2067
8685    8651.0  515.570     11.4484   9.1327     0.0   32.1837
8695    8661.0  515.970     11.4494   9.1337     0.0   32.1847
8705    8671.0  516.370     11.4494   9.1337     0.0   32.1566
8715    8681.0  516.770     11.4487   9.1330     0.0   32.1549
8725    8691.0  517.170     11.4491   9.1334     0.0   32.1506
8735    8701.0  517.570     11.4489   9.1332     0.0   32.0999
8745    8711.0  517.970     11.4488   9.1331     0.0   32.0886
8755    8721.0  518.370     11.4492   9.1335     0.0   32.0985
8765    8731.0  518.770     11.4499   9.1342     0.0   32.0895
8775    8741.0  519.170     11.4491   9.1334     0.0   32.0907
8785    8751.0  519.570     11.4496   9.1339     0.0   32.0959
8795    8761.0  519.970     11.4494   9.1337     0.0   32.1013
8805    8771.0  520.370     11.4490   9.1333     0.0   32.1021
8815    8781.0  520.770     11.4492   9.1335     0.0   32.0732
8825    8791.0  521.170     11.4491   9.1334     0.0   32.0936
8835    8801.0  521.570     11.4499   9.1341     0.0   32.0816
8845    8811.0  521.970     11.4492   9.1335     0.0   32.0732
8855    8821.0  522.370     11.4493   9.1336     0.0   32.0791
8865    8831.0  522.770     11.4492   9.1335     0.0   32.0808
8875    8841.0  523.170     11.4494   9.1337     0.0   32.0739
8885    8851.0  523.570     11.4488   9.1330     0.0   32.0783
8895    8861.0  523.970     11.4488   9.1331     0.0   32.0755
8905    8871.0  524.370     11.4492   9.1335     0.0   32.0648
8915    8881.0  524.770     11.4491   9.1334     0.0   32.0542
8925    8891.0  525.170     11.4494   9.1337     0.0   32.0608
8935    8901.0  525.570     11.4492   9.1334     0.0   32.0647
8945    8911.0  525.970     11.4493   9.1336     0.0   32.0639
8955    8921.0  526.370     11.4492   9.1335     0.0   32.0374
8965    8931.0  526.770     11.4490   9.1333     0.0   32.0352
8975    8941.0  527.170     11.4493   9.1336     0.0   32.0296
8985    8951.0  527.570     11.4493   9.1335     0.0   32.0234
8995    8961.0  527.970     11.4494   9.1337     0.0   32.0021
9005    8971.0  528.370     11.4491   9.1334     0.0   32.0044
9015    8981.0  528.770     11.4494   9.1337     0.0   32.0020
9025    8991.0  529.170     11.4492   9.1335     0.0   31.9827
9035    9001.0  529.570     11.4497   9.1340     0.0   31.9847
9045    9011.0  529.970     11.4494   9.1337     0.0   31.9843
9055    9021.0  530.370     11.4495   9.1338     0.0   31.9860
9065    9031.0  530.770     11.4489   9.1332     0.0   31.9744
9075    9041.0  531.170     11.4489   9.1332     0.0   31.9674
9085    9051.0  531.570     11.4495   9.1338     0.0   31.9737
9095    9061.0  531.970     11.4490   9.1333     0.0   31.9605
9105    9071.0  532.370     11.4491   9.1333     0.0   31.9429
9115    9081.0  532.770     11.4487   9.1330     0.0   31.9472
9125    9091.0  533.170     11.4494   9.1337     0.0   31.9395
9135    9101.0  533.570     11.4491   9.1333     0.0   31.9401
9145    9111.0  533.970     11.4495   9.1338     0.0   31.9335
9155    9121.0  534.370     11.4498   9.1341     0.0   31.9442
9165    9131.0  534.770     11.4487   9.1330     0.0   31.9605
9175    9141.0  535.170     11.4494   9.1336     0.0   31.9288
9185    9151.0  535.570     11.4495   9.1338     0.0   31.9261
9195    9161.0  535.970     11.4496   9.1339     0.0   31.9324
9205    9171.0  536.370     11.4494   9.1337     0.0   31.9318
9215    9181.0  536.770     11.4494   9.1337     0.0   31.9278
9225    9191.0  537.170     11.4491   9.1334     0.0   31.9246
9235    9201.0  537.570     11.4495   9.1337     0.0   31.9110
9245    9211.0  537.970     11.4497   9.1339     0.0   31.9116
9255    9221.0  538.370     11.4491   9.1334     0.0   31.9066
9265    9231.0  538.770     11.4490   9.1333     0.0   31.9050
9275    9241.0  539.170     11.4491   9.1334     0.0   31.9038
9285    9251.0  539.570     11.4489   9.1332     0.0   31.9054
9295    9261.0  539.970     11.4493   9.1336     0.0   31.8969
9305    9271.0  540.370     11.4493   9.1336     0.0   31.8834
9315    9281.0  540.770     11.4491   9.1334     0.0   31.8818
9325    9291.0  541.170     11.4489   9.1332     0.0   31.8793
9335    9301.0  541.570     11.4489   9.1331     0.0   31.8677
9345    9311.0  541.970     11.4493   9.1336     0.0   31.8729
9355    9321.0  542.370     11.4492   9.1335     0.0   31.8621
9365    9331.0  542.770     11.4487   9.1330     0.0   31.8897
9375    9341.0  543.170     11.4487   9.1330     0.0   31.8805
9385    9351.0  543.570     11.4492   9.1335     0.0   31.8557
9395    9361.0  543.970     11.4499   9.1342     0.0   31.8420
9405    9371.0  544.370     11.4496   9.1339     0.0   31.8350
9415    9381.0  544.770     11.4492   9.1335     0.0   31.8245
9425    9391.0  545.170     11.4497   9.1340     0.0   31.8134
9435    9401.0  545.570     11.4489   9.1332     0.0   31.8044
9445    9411.0  545.970     11.4487   9.1330     0.0   31.8099
9455    9421.0  546.370     11.4485   9.1328     0.0   31.8187
9465    9431.0  546.770     11.4494   9.1336     0.0   31.8116
9475    9441.0  547.170     11.4491   9.1334     0.0   31.8374
9485    9451.0  547.570     11.4493   9.1336     0.0   31.8601
9495    9461.0  547.970     11.4490   9.1333     0.0   31.8267
9505    9471.0  548.370     11.4489   9.1332     0.0   31.8143
9515    9481.0  548.770     11.4491   9.1334     0.0   31.8155
9525    9491.0  549.170     11.4493   9.1336     0.0   31.8080
9535    9501.0  549.570     11.4494   9.1337     0.0   31.7726
9545    9511.0  549.970     11.4492   9.1335     0.0   31.7975
9555    9521.0  550.370     11.4496   9.1339     0.0   31.8023
9565    9531.0  550.770     11.4499   9.1342     0.0   31.8030
9575    9541.0  551.170     11.4490   9.1333     0.0   31.8102
9585    9551.0  551.570     11.4491   9.1334     0.0   31.7978
9595    9561.0  551.970     11.4491   9.1334     0.0   31.7820
9605    9571.0  552.370     11.4488   9.1331     0.0   31.7820
9615    9581.0  552.770     11.4491   9.1334     0.0   31.7669
9625    9591.0  553.170     11.4492   9.1335     0.0   31.7552
9635    9601.0  553.570     11.4493   9.1336     0.0   31.7517
9645    9611.0  553.970     11.4488   9.1331     0.0   31.7528
9655    9621.0  554.370     11.4486   9.1329     0.0   31.7610
9665    9631.0  554.770     11.4495   9.1338     0.0   31.7525
9675    9641.0  555.170     11.4492   9.1334     0.0   31.7412
9685    9651.0  555.570     11.4487   9.1330     0.0   31.7173
9695    9661.0  555.970     11.4488   9.1331     0.0   31.7463
9705    9671.0  556.370     11.4490   9.1332     0.0   31.7707
9715    9681.0  556.770     11.4496   9.1339     0.0   31.7556
9725    9691.0  557.170     11.4490   9.1333     0.0   31.7474
9735    9701.0  557.570     11.4492   9.1335     0.0   31.7264
9745    9711.0  557.970     11.4489   9.1331     0.0   31.7257
9755    9721.0  558.370     11.4496   9.1339     0.0   31.7204
9765    9731.0  558.770     11.4492   9.1335     0.0   31.7168
9775    9741.0  559.170     11.4492   9.1335     0.0   31.6987
9785    9751.0  559.570     11.4492   9.1335     0.0   31.7095
9795    9761.0  559.970     11.4490   9.1333     0.0   31.7025
9805    9771.0  560.370     11.4491   9.1334     0.0   31.7024
9815    9781.0  560.770     11.4491   9.1334     0.0   31.7037
9825    9791.0  561.170     11.4489   9.1332     0.0   31.6943
9835    9801.0  561.570     11.4492   9.1335     0.0   31.6926
9845    9811.0  561.970     11.4497   9.1340     0.0   31.6935
9855    9821.0  562.370     11.4489   9.1332     0.0   31.6860
9865    9831.0  562.770     11.4485   9.1328     0.0   31.6958
9875    9841.0  563.170     11.4493   9.1336     0.0   31.6914
9885    9851.0  563.570     11.4491   9.1334     0.0   31.6912
9895    9861.0  563.970     11.4490   9.1333     0.0   31.6828
9905    9871.0  564.370     11.4491   9.1333     0.0   31.6801
9915    9881.0  564.770     11.4496   9.1338     0.0   31.6657
9925    9891.0  565.170     11.4493   9.1336     0.0   31.6552
9935    9901.0  565.570     11.4491   9.1333     0.0   31.6744
9945    9911.0  565.970     11.4491   9.1334     0.0   31.6758
9955    9921.0  566.370     11.4492   9.1335     0.0   31.6622
9965    9931.0  566.770     11.4488   9.1331     0.0   31.6601
9975    9941.0  567.170     11.4485   9.1328     0.0   31.6661
9985    9951.0  567.570     11.4496   9.1338     0.0   31.6664
9995    9961.0  567.970     11.4494   9.1337     0.0   31.6791
10005   9971.0  568.370     11.4487   9.1330     0.0   31.6542
10015   9981.0  568.770     11.4492   9.1335     0.0   31.6596
10025   9991.0  569.170     11.4485   9.1328     0.0   31.6708
10035  10001.0  569.570     11.4488   9.1331     0.0   31.6524
10045  10011.0  569.970     11.4493   9.1335     0.0   31.6367
10055  10021.0  570.370     11.4493   9.1336     0.0   31.6397
10065  10031.0  570.770     11.4497   9.1340     0.0   31.6431
10075  10041.0  571.170     11.4491   9.1334     0.0   31.6184
10085  10051.0  571.570     11.4486   9.1329     0.0   31.6299
10095  10061.0  571.970     11.4495   9.1338     0.0   31.6060
10105  10071.0  572.370     11.4492   9.1335     0.0   31.6065
10116  10081.0  572.770     11.4486   9.1329     0.0   31.5899
10132  10091.0  573.215     11.4614   9.1457     0.0   31.9485
10142  10101.0  573.615     11.4740   9.1582     0.0   32.2997
10152  10111.0  574.015     11.4878   9.1720     0.0   32.6285
10162  10121.0  574.415     11.5011   9.1854     0.0   32.9606
10172  10131.0  574.815     11.5141   9.1984     0.0   33.2361
10182  10141.0  575.215     11.5277   9.2120     0.0   33.5542
10192  10151.0  575.615     11.5407   9.2250     0.0   33.8104
10202  10161.0  576.015     11.5545   9.2388     0.0   34.1061
10212  10171.0  576.415     11.5677   9.2520     0.0   34.3689
10222  10181.0  576.815     11.5808   9.2651     0.0   34.5961
10232  10191.0  577.215     11.5941   9.2784     0.0   34.8584
10242  10201.0  577.615     11.6074   9.2916     0.0   35.0668
10252  10211.0  578.015     11.6206   9.3049     0.0   35.3079
10262  10221.0  578.415     11.6341   9.3184     0.0   35.5231
10272  10231.0  578.815     11.6477   9.3320     0.0   35.7261
10282  10241.0  579.215     11.6609   9.3452     0.0   35.9407
10292  10251.0  579.615     11.6741   9.3584     0.0   36.1356
10302  10261.0  580.015     11.6871   9.3714     0.0   36.3175
10312  10271.0  580.415     11.7007   9.3850     0.0   36.4998
10322  10281.0  580.815     11.7139   9.3982     0.0   36.6785
10332  10291.0  581.215     11.7268   9.4111     0.0   36.8527
10342  10301.0  581.615     11.7408   9.4250     0.0   37.0307
10352  10311.0  582.015     11.7534   9.4376     0.0   37.1818
10362  10321.0  582.415     11.7671   9.4514     0.0   37.3406
10372  10331.0  582.815     11.7802   9.4645     0.0   37.4928
10382  10341.0  583.215     11.7943   9.4786     0.0   37.6319
10392  10351.0  583.615     11.8073   9.4916     0.0   37.7692
10402  10361.0  584.015     11.8200   9.5043     0.0   37.8966
10412  10371.0  584.415     11.8343   9.5186     0.0   38.0265
10422  10381.0  584.815     11.8473   9.5315     0.0   38.1661
10432  10391.0  585.215     11.8606   9.5449     0.0   38.2887
10442  10401.0  585.615     11.8736   9.5579     0.0   38.4335
10452  10411.0  586.015     11.8873   9.5716     0.0   38.5502
10462  10421.0  586.415     11.9006   9.5848     0.0   38.7015
10472  10431.0  586.815     11.9143   9.5985     0.0   38.7911
10482  10441.0  587.215     11.9273   9.6116     0.0   38.9415
10492  10451.0  587.615     11.9408   9.6251     0.0   39.0641
10502  10461.0  588.015     11.9537   9.6380     0.0   39.1916
10512  10471.0  588.415     11.9674   9.6517     0.0   39.2975
10522  10481.0  588.815     11.9806   9.6649     0.0   39.4105
10532  10491.0  589.215     11.9938   9.6781     0.0   39.5116
10542  10501.0  589.615     12.0076   9.6919     0.0   39.6285
10552  10511.0  590.015     12.0206   9.7049     0.0   39.7876
10562  10521.0  590.415     12.0340   9.7183     0.0   39.8969
10572  10531.0  590.815     12.0469   9.7312     0.0   39.9862
10582  10541.0  591.215     12.0606   9.7449     0.0   40.0875
10592  10551.0  591.615     12.0735   9.7578     0.0   40.1992
10602  10561.0  592.015     12.0872   9.7715     0.0   40.2910
10612  10571.0  592.415     12.0997   9.7840     0.0   40.3996
10622  10581.0  592.815     12.1140   9.7983     0.0   40.5184
10632  10591.0  593.215     12.1270   9.8113     0.0   40.6137
10642  10601.0  593.615     12.1405   9.8248     0.0   40.6942
10652  10611.0  594.015     12.1540   9.8383     0.0   40.7958
10662  10621.0  594.415     12.1674   9.8517     0.0   40.8903
10672  10631.0  594.815     12.1802   9.8645     0.0   40.9762
10682  10641.0  595.215     12.1933   9.8776     0.0   41.0733
10692  10651.0  595.615     12.2075   9.8918     0.0   41.1921
10702  10661.0  596.015     12.2198   9.9041     0.0   41.2561
10712  10671.0  596.415     12.2337   9.9180     0.0   41.3463
10722  10681.0  596.815     12.2465   9.9308     0.0   41.4222
10732  10691.0  597.215     12.2606   9.9449     0.0   41.5215
10742  10701.0  597.615     12.2736   9.9579     0.0   41.5962
10752  10711.0  598.015     12.2867   9.9710     0.0   41.6905
10762  10721.0  598.415     12.3002   9.9845     0.0   41.7686
10772  10731.0  598.815     12.3139   9.9982     0.0   41.8366
10782  10741.0  599.215     12.3269  10.0111     0.0   41.9179
10792  10751.0  599.615     12.3396  10.0239     0.0   41.9835
10802  10761.0  600.015     12.3543  10.0386     0.0   42.0593
10812  10771.0  600.415     12.3673  10.0516     0.0   42.1515
10822  10781.0  600.815     12.3800  10.0642     0.0   42.1828
10832  10791.0  601.215     12.3944  10.0786     0.0   42.2760
10842  10801.0  601.615     12.4070  10.0913     0.0   42.3437
10852  10811.0  602.015     12.4202  10.1045     0.0   42.4252
10862  10821.0  602.415     12.4345  10.1188     0.0   42.4890
10872  10831.0  602.815     12.4472  10.1315     0.0   42.5525
10882  10841.0  603.215     12.4605  10.1448     0.0   42.6193
10892  10851.0  603.615     12.4732  10.1575     0.0   42.6783
10902  10861.0  604.015     12.4868  10.1711     0.0   42.7275
10912  10871.0  604.415     12.5009  10.1852     0.0   42.7574
10922  10881.0  604.815     12.5139  10.1981     0.0   42.8512
10932  10891.0  605.215     12.5272  10.2114     0.0   42.8856
10942  10901.0  605.615     12.5406  10.2248     0.0   42.9368
10952  10911.0  606.015     12.5539  10.2382     0.0   42.9993
10962  10921.0  606.415     12.5669  10.2512     0.0   43.0545
10972  10931.0  606.815     12.5812  10.2655     0.0   43.1108
10982  10941.0  607.215     12.5935  10.2778     0.0   43.1376
10992  10951.0  607.615     12.6079  10.2922     0.0   43.1894
11002  10961.0  608.015     12.6200  10.3043     0.0   43.1955
11012  10971.0  608.415     12.6336  10.3179     0.0   43.2557
11022  10981.0  608.815     12.6473  10.3315     0.0   43.2925
11032  10991.0  609.215     12.6607  10.3450     0.0   43.3381
11042  11001.0  609.615     12.6742  10.3585     0.0   43.3804
11052  11011.0  610.015     12.6864  10.3707     0.0   43.4031
11062  11021.0  610.415     12.7004  10.3847     0.0   43.4509
11072  11031.0  610.815     12.7139  10.3982     0.0   43.4827
11082  11041.0  611.215     12.7264  10.4107     0.0   43.5322
11092  11051.0  611.615     12.7402  10.4245     0.0   43.5738
11102  11061.0  612.015     12.7537  10.4380     0.0   43.6076
11112  11071.0  612.415     12.7669  10.4512     0.0   43.6345
11122  11081.0  612.815     12.7811  10.4654     0.0   43.6975
11132  11091.0  613.215     12.7934  10.4777     0.0   43.6962
11142  11101.0  613.615     12.8072  10.4915     0.0   43.7551
11152  11111.0  614.015     12.8203  10.5046     0.0   43.7900
11162  11121.0  614.415     12.8341  10.5184     0.0   43.8212
11172  11131.0  614.815     12.8470  10.5312     0.0   43.8520
11182  11141.0  615.215     12.8605  10.5447     0.0   43.8757
11192  11151.0  615.615     12.8732  10.5575     0.0   43.9135
11202  11161.0  616.015     12.8868  10.5711     0.0   43.9742
11212  11171.0  616.415     12.9007  10.5850     0.0   43.9788
11222  11181.0  616.815     12.9141  10.5983     0.0   44.0310
11232  11191.0  617.215     12.9269  10.6112     0.0   44.0654
11242  11201.0  617.615     12.9399  10.6242     0.0   44.0678
11252  11211.0  618.015     12.9539  10.6382     0.0   44.1230
11262  11221.0  618.415     12.9666  10.6509     0.0   44.1163
11272  11231.0  618.815     12.9801  10.6643     0.0   44.1749
11282  11241.0  619.215     12.9937  10.6780     0.0   44.2005
11292  11251.0  619.615     13.0076  10.6919     0.0   44.2437
11302  11261.0  620.015     13.0208  10.7051     0.0   44.2729
11312  11271.0  620.415     13.0336  10.7178     0.0   44.3086
11322  11281.0  620.815     13.0473  10.7316     0.0   44.3304
11332  11291.0  621.215     13.0600  10.7443     0.0   44.3616
11342  11301.0  621.615     13.0733  10.7576     0.0   44.3747
11352  11311.0  622.015     13.0868  10.7711     0.0   44.4546
11362  11321.0  622.415     13.1005  10.7848     0.0   44.4690
11372  11331.0  622.815     13.1136  10.7978     0.0   44.5036
11382  11341.0  623.215     13.1274  10.8116     0.0   44.5474
11392  11351.0  623.615     13.1403  10.8246     0.0   44.5644
11402  11361.0  624.015     13.1543  10.8386     0.0   44.5994
11412  11371.0  624.415     13.1661  10.8504     0.0   44.6088
11422  11381.0  624.815     13.1806  10.8649     0.0   44.6362
11432  11391.0  625.215     13.1926  10.8769     0.0   44.6451
11442  11401.0  625.615     13.2070  10.8913     0.0   44.6943
11452  11411.0  626.015     13.2202  10.9045     0.0   44.7181
11462  11421.0  626.415     13.2343  10.9186     0.0   44.7308
11472  11431.0  626.815     13.2471  10.9314     0.0   44.7937
11482  11441.0  627.215     13.2606  10.9448     0.0   44.8265
11492  11451.0  627.615     13.2741  10.9584     0.0   44.8418
11502  11461.0  628.015     13.2872  10.9715     0.0   44.8568
11512  11471.0  628.415     13.3005  10.9848     0.0   44.8815
11522  11481.0  628.815     13.3135  10.9978     0.0   44.9105
11532  11491.0  629.215     13.3264  11.0107     0.0   44.9525
11542  11501.0  629.615     13.3396  11.0239     0.0   44.9673
11552  11511.0  630.015     13.3532  11.0375     0.0   44.9800
11568  11521.0  630.390     13.3415  11.0258     0.0   44.5259
11578  11531.0  630.790     13.3418  11.0261     0.0   44.4448
11588  11541.0  631.190     13.3416  11.0259     0.0   44.3362
11598  11551.0  631.590     13.3417  11.0259     0.0   44.2727
11608  11561.0  631.990     13.3415  11.0258     0.0   44.2094
11618  11571.0  632.390     13.3419  11.0262     0.0   44.1576
11628  11581.0  632.790     13.3415  11.0258     0.0   44.1012
11638  11591.0  633.190     13.3417  11.0260     0.0   44.0371
11648  11601.0  633.590     13.3415  11.0258     0.0   44.0121
11658  11611.0  633.990     13.3420  11.0263     0.0   43.9745
11668  11621.0  634.390     13.3417  11.0260     0.0   43.9362
11678  11631.0  634.790     13.3414  11.0257     0.0   43.8913
11688  11641.0  635.190     13.3415  11.0258     0.0   43.8533
11698  11651.0  635.590     13.3421  11.0264     0.0   43.8202
11708  11661.0  635.990     13.3414  11.0257     0.0   43.7915
11718  11671.0  636.390     13.3419  11.0262     0.0   43.7766
11728  11681.0  636.790     13.3422  11.0265     0.0   43.7442
11738  11691.0  637.190     13.3418  11.0261     0.0   43.7121
11748  11701.0  637.590     13.3417  11.0260     0.0   43.6819
11758  11711.0  637.990     13.3420  11.0263     0.0   43.6574
11768  11721.0  638.390     13.3420  11.0263     0.0   43.6327
11778  11731.0  638.790     13.3415  11.0258     0.0   43.6246
11788  11741.0  639.190     13.3421  11.0264     0.0   43.5865
11798  11751.0  639.590     13.3418  11.0261     0.0   43.5502
11808  11761.0  639.990     13.3421  11.0264     0.0   43.5375
11818  11771.0  640.390     13.3414  11.0257     0.0   43.5061
11829  11781.0  640.790     13.3417  11.0260     0.0   43.4874
11839  11791.0  641.190     13.3418  11.0261     0.0   43.4765
11849  11801.0  641.590     13.3418  11.0261     0.0   43.4661
11859  11811.0  641.990     13.3435  11.0278     0.0   43.4523
11869  11821.0  642.390     13.3423  11.0266     0.0   43.3949
11879  11831.0  642.790     13.3414  11.0257     0.0   43.3872
11889  11841.0  643.190     13.3418  11.0261     0.0   43.3553
11899  11851.0  643.590     13.3420  11.0263     0.0   43.3471
11909  11861.0  643.990     13.3422  11.0265     0.0   43.3451
11919  11871.0  644.390     13.3416  11.0259     0.0   43.3465
11929  11881.0  644.790     13.3416  11.0259     0.0   43.3018
11939  11891.0  645.190     13.3420  11.0263     0.0   43.2880
11949  11901.0  645.590     13.3424  11.0267     0.0   43.2877
11959  11911.0  645.990     13.3417  11.0260     0.0   43.2879
11969  11921.0  646.390     13.3416  11.0259     0.0   43.2822
11979  11931.0  646.790     13.3417  11.0260     0.0   43.2741
11989  11941.0  647.190     13.3414  11.0257     0.0   43.2225
11999  11951.0  647.590     13.3421  11.0264     0.0   43.2214
12009  11961.0  647.990     13.3423  11.0266     0.0   43.2007
12019  11971.0  648.390     13.3414  11.0257     0.0   43.1738
12029  11981.0  648.790     13.3414  11.0256     0.0   43.1810
12039  11991.0  649.190     13.3420  11.0263     0.0   43.1729
12049  12001.0  649.590     13.3419  11.0262     0.0   43.1380
12059  12011.0  649.990     13.3419  11.0262     0.0   43.1206
12069  12021.0  650.390     13.3426  11.0269     0.0   43.1095
12079  12031.0  650.790     13.3419  11.0262     0.0   43.1040
12089  12041.0  651.190     13.3420  11.0263     0.0   43.0924
12099  12051.0  651.590     13.3420  11.0263     0.0   43.0831
12109  12061.0  651.990     13.3418  11.0261     0.0   43.0650
12119  12071.0  652.390     13.3420  11.0263     0.0   43.0555
12129  12081.0  652.790     13.3419  11.0262     0.0   43.0461
12139  12091.0  653.190     13.3416  11.0259     0.0   43.0288
12149  12101.0  653.590     13.3421  11.0264     0.0   43.0349
12159  12111.0  653.990     13.3424  11.0267     0.0   43.0211
12169  12121.0  654.390     13.3419  11.0262     0.0   43.0018
12179  12131.0  654.790     13.3416  11.0259     0.0   42.9887
12189  12141.0  655.190     13.3420  11.0263     0.0   42.9774
12199  12151.0  655.590     13.3421  11.0264     0.0   42.9770
12209  12161.0  655.990     13.3428  11.0271     0.0   42.9541
12219  12171.0  656.390     13.3419  11.0262     0.0   42.9639
12229  12181.0  656.790     13.3423  11.0266     0.0   42.9396
12239  12191.0  657.190     13.3418  11.0261     0.0   42.9353
12249  12201.0  657.590     13.3426  11.0269     0.0   42.9519
12259  12211.0  657.990     13.3421  11.0263     0.0   42.9105
12269  12221.0  658.390     13.3415  11.0258     0.0   42.8882
12279  12231.0  658.790     13.3422  11.0265     0.0   42.8889
12289  12241.0  659.190     13.3417  11.0260     0.0   42.8798
12299  12251.0  659.590     13.3419  11.0262     0.0   42.8590
12309  12261.0  659.990     13.3413  11.0256     0.0   42.8470
12319  12271.0  660.390     13.3415  11.0257     0.0   42.8566
12329  12281.0  660.790     13.3424  11.0267     0.0   42.8289
12339  12291.0  661.190     13.3419  11.0262     0.0   42.8054
12349  12301.0  661.590     13.3418  11.0261     0.0   42.8188
12359  12311.0  661.990     13.3423  11.0265     0.0   42.8192
12369  12321.0  662.390     13.3423  11.0266     0.0   42.7929
12379  12331.0  662.790     13.3430  11.0273     0.0   42.7719
12389  12341.0  663.190     13.3420  11.0263     0.0   42.7346
12399  12351.0  663.590     13.3418  11.0261     0.0   42.7345
12409  12361.0  663.990     13.3414  11.0257     0.0   42.7266
12419  12371.0  664.390     13.3421  11.0264     0.0   42.7242
12429  12381.0  664.790     13.3418  11.0261     0.0   42.7042
12439  12391.0  665.190     13.3421  11.0264     0.0   42.6955
12449  12401.0  665.590     13.3421  11.0264     0.0   42.6942
12459  12411.0  665.990     13.3420  11.0263     0.0   42.6981
12469  12421.0  666.390     13.3415  11.0258     0.0   42.6821
12479  12431.0  666.790     13.3433  11.0276     0.0   42.6798
12489  12441.0  667.190     13.3417  11.0260     0.0   42.6762
12499  12451.0  667.590     13.3424  11.0267     0.0   42.6695
12509  12461.0  667.990     13.3416  11.0259     0.0   42.6582
12519  12471.0  668.390     13.3424  11.0267     0.0   42.6435
12529  12481.0  668.790     13.3423  11.0265     0.0   42.6386
12539  12491.0  669.190     13.3424  11.0267     0.0   42.6226
12549  12501.0  669.590     13.3417  11.0260     0.0   42.6253
12559  12511.0  669.990     13.3416  11.0259     0.0   42.6379
12569  12521.0  670.390     13.3411  11.0254     0.0   42.6296
12579  12531.0  670.790     13.3423  11.0266     0.0   42.6213
12589  12541.0  671.190     13.3420  11.0263     0.0   42.6031
12599  12551.0  671.590     13.3423  11.0265     0.0   42.5985
12609  12561.0  671.990     13.3418  11.0261     0.0   42.5769
12619  12571.0  672.390     13.3413  11.0256     0.0   42.5619
12629  12581.0  672.790     13.3420  11.0263     0.0   42.5623
12639  12591.0  673.190     13.3417  11.0260     0.0   42.5613
12649  12601.0  673.590     13.3419  11.0262     0.0   42.5488
12659  12611.0  673.990     13.3417  11.0260     0.0   42.5490
12669  12621.0  674.390     13.3415  11.0258     0.0   42.5343
12679  12631.0  674.790     13.3424  11.0267     0.0   42.5300
12689  12641.0  675.190     13.3415  11.0258     0.0   42.5216
12699  12651.0  675.590     13.3419  11.0262     0.0   42.5245
12709  12661.0  675.990     13.3421  11.0264     0.0   42.5228
12719  12671.0  676.390     13.3416  11.0259     0.0   42.5246
12729  12681.0  676.790     13.3421  11.0264     0.0   42.5105
12739  12691.0  677.190     13.3414  11.0257     0.0   42.5038
12749  12701.0  677.590     13.3415  11.0258     0.0   42.4935
12759  12711.0  677.990     13.3419  11.0261     0.0   42.4963
12769  12721.0  678.390     13.3423  11.0265     0.0   42.4708
12779  12731.0  678.790     13.3420  11.0263     0.0   42.4657
12789  12741.0  679.190     13.3416  11.0259     0.0   42.4480
12799  12751.0  679.590     13.3413  11.0256     0.0   42.4436
12809  12761.0  679.990     13.3417  11.0259     0.0   42.4534
12819  12771.0  680.390     13.3415  11.0258     0.0   42.4344
12829  12781.0  680.790     13.3420  11.0263     0.0   42.4144
12839  12791.0  681.190     13.3424  11.0267     0.0   42.4159
12849  12801.0  681.590     13.3418  11.0260     0.0   42.3962
12859  12811.0  681.990     13.3413  11.0256     0.0   42.4045
12869  12821.0  682.390     13.3423  11.0266     0.0   42.3950
12879  12831.0  682.790     13.3416  11.0259     0.0   42.3820
12889  12841.0  683.190     13.3422  11.0264     0.0   42.3891
12899  12851.0  683.590     13.3409  11.0252     0.0   42.3795
12909  12861.0  683.990     13.3420  11.0263     0.0   42.3711
12919  12871.0  684.390     13.3422  11.0265     0.0   42.3611
12929  12881.0  684.790     13.3419  11.0262     0.0   42.3509
12939  12891.0  685.190     13.3422  11.0265     0.0   42.3203
12949  12901.0  685.590     13.3414  11.0257     0.0   42.3142
12959  12911.0  685.990     13.3421  11.0264     0.0   42.3166
12969  12921.0  686.390     13.3419  11.0262     0.0   42.3284
12979  12931.0  686.790     13.3424  11.0267     0.0   42.2991
12989  12941.0  687.190     13.3417  11.0260     0.0   42.2845
12999  12951.0  687.590     13.3415  11.0257     0.0   42.2961
13009  12961.0  687.990     13.3419  11.0262     0.0   42.3019
13019  12971.0  688.390     13.3424  11.0267     0.0   42.2886
13029  12981.0  688.790     13.3415  11.0258     0.0   42.2823
13039  12991.0  689.190     13.3416  11.0259     0.0   42.2635
13049  13001.0  689.590     13.3419  11.0262     0.0   42.2693
13059  13011.0  689.990     13.3423  11.0266     0.0   42.2559
13069  13021.0  690.390     13.3418  11.0261     0.0   42.2644
13079  13031.0  690.790     13.3428  11.0271     0.0   42.2685
13089  13041.0  691.190     13.3415  11.0258     0.0   42.2475
13099  13051.0  691.590     13.3426  11.0269     0.0   42.2618
13109  13061.0  691.990     13.3418  11.0260     0.0   42.2465
13119  13071.0  692.390     13.3422  11.0265     0.0   42.2217
13129  13081.0  692.790     13.3419  11.0262     0.0   42.2272
13139  13091.0  693.190     13.3415  11.0258     0.0   42.2113
13149  13101.0  693.590     13.3418  11.0261     0.0   42.2152
13159  13111.0  693.990     13.3418  11.0260     0.0   42.2283
13169  13121.0  694.390     13.3427  11.0270     0.0   42.2262
13179  13131.0  694.790     13.3418  11.0261     0.0   42.2213
13189  13141.0  695.190     13.3417  11.0260     0.0   42.2427
13199  13151.0  695.590     13.3418  11.0261     0.0   42.2226
13209  13161.0  695.990     13.3424  11.0267     0.0   42.2397
13219  13171.0  696.390     13.3423  11.0265     0.0   42.2185
13229  13181.0  696.790     13.3421  11.0264     0.0   42.2090
13239  13191.0  697.190     13.3418  11.0261     0.0   42.2072
13249  13201.0  697.590     13.3420  11.0263     0.0   42.1629
13259  13211.0  697.990     13.3417  11.0260     0.0   42.1665
13269  13221.0  698.390     13.3415  11.0257     0.0   42.1599
13279  13231.0  698.790     13.3418  11.0261     0.0   42.1570
13289  13241.0  699.190     13.3417  11.0259     0.0   42.1333
13299  13251.0  699.590     13.3422  11.0264     0.0   42.1217
13309  13261.0  699.990     13.3426  11.0269     0.0   42.1195
13319  13271.0  700.390     13.3418  11.0261     0.0   42.1186
13329  13281.0  700.790     13.3417  11.0260     0.0   42.1224
13339  13291.0  701.190     13.3420  11.0263     0.0   42.1192
13349  13301.0  701.590     13.3417  11.0259     0.0   42.1206
13359  13311.0  701.990     13.3418  11.0261     0.0   42.1145
13369  13321.0  702.390     13.3413  11.0256     0.0   42.0921
13379  13331.0  702.790     13.3423  11.0266     0.0   42.0824
13389  13341.0  703.190     13.3422  11.0265     0.0   42.0708
13399  13351.0  703.590     13.3418  11.0261     0.0   42.0747
13409  13361.0  703.990     13.3421  11.0264     0.0   42.0798
13419  13371.0  704.390     13.3428  11.0270     0.0   42.0464
13429  13381.0  704.790     13.3420  11.0263     0.0   42.0803
13439  13391.0  705.190     13.3419  11.0262     0.0   42.0790
13449  13401.0  705.590     13.3415  11.0258     0.0   42.0615
13459  13411.0  705.990     13.3417  11.0260     0.0   42.0435
13469  13421.0  706.390     13.3424  11.0266     0.0   42.0636
13479  13431.0  706.790     13.3416  11.0259     0.0   42.0528
13489  13441.0  707.190     13.3414  11.0257     0.0   42.0599
13499  13451.0  707.590     13.3418  11.0260     0.0   42.0518
13509  13461.0  707.990     13.3420  11.0263     0.0   42.0534
13519  13471.0  708.390     13.3419  11.0261     0.0   42.0447
13529  13481.0  708.790     13.3418  11.0261     0.0   42.0364
13539  13491.0  709.190     13.3421  11.0264     0.0   42.0256
13549  13501.0  709.590     13.3420  11.0263     0.0   42.0374
13559  13511.0  709.990     13.3419  11.0262     0.0   42.0187
13569  13521.0  710.390     13.3416  11.0259     0.0   42.0129
13579  13531.0  710.790     13.3416  11.0259     0.0   42.0067
13589  13541.0  711.190     13.3423  11.0266     0.0   42.0145
13599  13551.0  711.590     13.3415  11.0258     0.0   41.9856
13609  13561.0  711.990     13.3417  11.0260     0.0   41.9936
13619  13571.0  712.390     13.3421  11.0264     0.0   41.9908
13629  13581.0  712.790     13.3420  11.0263     0.0   41.9884
13639  13591.0  713.190     13.3424  11.0267     0.0   41.9838
13649  13601.0  713.590     13.3412  11.0255     0.0   41.9635
13659  13611.0  713.990     13.3419  11.0262     0.0   41.9679
13669  13621.0  714.390     13.3426  11.0269     0.0   41.9618
13679  13631.0  714.790     13.3420  11.0263     0.0   41.9509
13689  13641.0  715.190     13.3424  11.0266     0.0   41.9415
13699  13651.0  715.590     13.3419  11.0262     0.0   41.9721
13709  13661.0  715.990     13.3427  11.0270     0.0   41.9597
13719  13671.0  716.390     13.3415  11.0257     0.0   41.9425
13729  13681.0  716.790     13.3420  11.0263     0.0   41.9500
13739  13691.0  717.190     13.3419  11.0262     0.0   41.9536
13749  13701.0  717.590     13.3418  11.0261     0.0   41.9493
13759  13711.0  717.990     13.3421  11.0264     0.0   41.9481
13769  13721.0  718.390     13.3414  11.0257     0.0   41.9376
13779  13731.0  718.790     13.3426  11.0269     0.0   41.9250
13789  13741.0  719.190     13.3426  11.0268     0.0   41.8965
13799  13751.0  719.590     13.3421  11.0264     0.0   41.9115
13809  13761.0  719.990     13.3417  11.0259     0.0   41.8919
13819  13771.0  720.390     13.3421  11.0264     0.0   41.8877
13829  13781.0  720.790     13.3420  11.0263     0.0   41.8919
13839  13791.0  721.190     13.3417  11.0260     0.0   41.8913
13849  13801.0  721.590     13.3421  11.0264     0.0   41.8884
13859  13811.0  721.990     13.3413  11.0256     0.0   41.8805
13869  13821.0  722.390     13.3423  11.0266     0.0   41.8784
13879  13831.0  722.790     13.3416  11.0259     0.0   41.8963
13889  13841.0  723.190     13.3421  11.0264     0.0   41.8788
13899  13851.0  723.590     13.3414  11.0257     0.0   41.8410
13909  13861.0  723.990     13.3421  11.0264     0.0   41.8489
13919  13871.0  724.390     13.3421  11.0264     0.0   41.8481
13929  13881.0  724.790     13.3417  11.0259     0.0   41.8538
13939  13891.0  725.190     13.3422  11.0264     0.0   41.8391
13949  13901.0  725.590     13.3425  11.0268     0.0   41.8621
13959  13911.0  725.990     13.3426  11.0268     0.0   41.8553
13969  13921.0  726.390     13.3420  11.0263     0.0   41.8411
13979  13931.0  726.790     13.3416  11.0259     0.0   41.8492
13989  13941.0  727.190     13.3414  11.0257     0.0   41.8445
13999  13951.0  727.590     13.3422  11.0264     0.0   41.8461
14009  13961.0  727.990     13.3413  11.0256     0.0   41.8345
14019  13971.0  728.390     13.3418  11.0261     0.0   41.8339
14029  13981.0  728.790     13.3429  11.0272     0.0   41.8323
14039  13991.0  729.190     13.3428  11.0271     0.0   41.8295
14049  14001.0  729.590     13.3416  11.0259     0.0   41.8228
14059  14011.0  729.990     13.3419  11.0262     0.0   41.8159
14069  14021.0  730.390     13.3421  11.0264     0.0   41.8284
14079  14031.0  730.790     13.3423  11.0266     0.0   41.8122
14089  14041.0  731.190     13.3414  11.0257     0.0   41.7834
14099  14051.0  731.590     13.3417  11.0260     0.0   41.7924
14109  14061.0  731.990     13.3418  11.0260     0.0   41.7691
14119  14071.0  732.390     13.3418  11.0261     0.0   41.7738
14129  14081.0  732.790     13.3422  11.0265     0.0   41.7506
14139  14091.0  733.190     13.3417  11.0260     0.0   41.7523
14149  14101.0  733.590     13.3420  11.0263     0.0   41.7392
14159  14111.0  733.990     13.3417  11.0260     0.0   41.7253
14169  14121.0  734.390     13.3405  11.0248     0.0   41.7261
14179  14131.0  734.790     13.3418  11.0260     0.0   41.7361
14189  14141.0  735.190     13.3414  11.0256     0.0   41.7156
14199  14151.0  735.590     13.3421  11.0264     0.0   41.7270
14209  14161.0  735.990     13.3410  11.0253     0.0   41.7265
14219  14171.0  736.390     13.3418  11.0261     0.0   41.7242
14229  14181.0  736.790     13.3424  11.0267     0.0   41.7378
14239  14191.0  737.190     13.3421  11.0264     0.0   41.7233
14249  14201.0  737.590     13.3421  11.0264     0.0   41.7004
14259  14211.0  737.990     13.3412  11.0255     0.0   41.6985
14269  14221.0  738.390     13.3422  11.0265     0.0   41.7052
14279  14231.0  738.790     13.3416  11.0258     0.0   41.6834
14289  14241.0  739.190     13.3419  11.0262     0.0   41.6873
14299  14251.0  739.590     13.3417  11.0260     0.0   41.6907
14309  14261.0  739.990     13.3420  11.0263     0.0   41.6903
14319  14271.0  740.390     13.3416  11.0258     0.0   41.6977
14329  14281.0  740.790     13.3419  11.0261     0.0   41.7091
14339  14291.0  741.190     13.3415  11.0258     0.0   41.7006
14349  14301.0  741.590     13.3417  11.0260     0.0   41.6992
14359  14311.0  741.990     13.3422  11.0265     0.0   41.6957
14369  14321.0  742.390     13.3425  11.0268     0.0   41.6958
14379  14331.0  742.790     13.3422  11.0264     0.0   41.6806
14389  14341.0  743.190     13.3418  11.0261     0.0   41.6826
14399  14351.0  743.590     13.3416  11.0259     0.0   41.6712
14409  14361.0  743.990     13.3428  11.0271     0.0   41.6718
14419  14371.0  744.390     13.3423  11.0266     0.0   41.6583
14429  14381.0  744.790     13.3418  11.0261     0.0   41.6672
14439  14391.0  745.190     13.3422  11.0265     0.0   41.6644
14449  14401.0  745.590     13.3419  11.0262     0.0   41.6651
14459  14411.0  745.990     13.3415  11.0258     0.0   41.6548
14469  14421.0  746.390     13.3420  11.0263     0.0   41.6615
14479  14431.0  746.790     13.3417  11.0260     0.0   41.6590
14489  14441.0  747.190     13.3420  11.0262     0.0   41.6495
14499  14451.0  747.590     13.3423  11.0266     0.0   41.6529
14515  14461.0  748.040     13.3436  11.0279     0.0   41.6939
14525  14471.0  748.440     13.3573  11.0416     0.0   42.0614
14535  14481.0  748.840     13.3705  11.0548     0.0   42.3878
14545  14491.0  749.240     13.3844  11.0687     0.0   42.7015
14555  14501.0  749.640     13.3982  11.0825     0.0   42.9591
14565  14511.0  750.040     13.4100  11.0943     0.0   43.2186
14575  14521.0  750.440     13.4237  11.1080     0.0   43.4922
14585  14531.0  750.840     13.4371  11.1214     0.0   43.7290
14595  14541.0  751.240     13.4505  11.1348     0.0   43.9527
14605  14551.0  751.640     13.4640  11.1483     0.0   44.1396
14615  14561.0  752.040     13.4776  11.1619     0.0   44.3285
14625  14571.0  752.440     13.4910  11.1753     0.0   44.4885
14635  14581.0  752.840     13.5034  11.1877     0.0   44.6407
14645  14591.0  753.240     13.5171  11.2014     0.0   44.7673
14655  14601.0  753.640     13.5304  11.2146     0.0   44.8772
14665  14611.0  754.040     13.5447  11.2290     0.0   44.9706
14675  14621.0  754.440     13.5577  11.2420     0.0   45.0579
14685  14631.0  754.840     13.5711  11.2554     0.0   45.1436
14695  14641.0  755.240     13.5849  11.2692     0.0   45.1854
14705  14651.0  755.640     13.5986  11.2828     0.0   45.2071
14715  14661.0  756.040     13.6106  11.2949     0.0   45.2740
14725  14671.0  756.440     13.6244  11.3087     0.0   45.3169
14735  14681.0  756.840     13.6374  11.3217     0.0   45.3527
14745  14691.0  757.240     13.6510  11.3353     0.0   45.3858
14755  14701.0  757.640     13.6644  11.3487     0.0   45.3990
14765  14711.0  758.040     13.6774  11.3617     0.0   45.4256
14775  14721.0  758.440     13.6909  11.3751     0.0   45.4837
14785  14731.0  758.840     13.7037  11.3880     0.0   45.5034
14795  14741.0  759.240     13.7172  11.4015     0.0   45.5317
14805  14751.0  759.640     13.7310  11.4153     0.0   45.5772
14815  14761.0  760.040     13.7438  11.4281     0.0   45.5662
14825  14771.0  760.440     13.7572  11.4415     0.0   45.6054
14835  14781.0  760.840     13.7705  11.4548     0.0   45.6536
14845  14791.0  761.240     13.7838  11.4681     0.0   45.6687
14855  14801.0  761.640     13.7976  11.4819     0.0   45.7052
14865  14811.0  762.040     13.8110  11.4953     0.0   45.7270
14875  14821.0  762.440     13.8247  11.5090     0.0   45.7762
14885  14831.0  762.840     13.8373  11.5216     0.0   45.7678
14895  14841.0  763.240     13.8502  11.5345     0.0   45.7837
14905  14851.0  763.640     13.8642  11.5485     0.0   45.8196
14915  14861.0  764.040     13.8776  11.5619     0.0   45.8568
14925  14871.0  764.440     13.8906  11.5749     0.0   45.8740
14935  14881.0  764.840     13.9044  11.5886     0.0   45.8778
14945  14891.0  765.240     13.9177  11.6020     0.0   45.9074
14955  14901.0  765.640     13.9312  11.6154     0.0   45.9528
14965  14911.0  766.040     13.9442  11.6285     0.0   45.9725
14975  14921.0  766.440     13.9576  11.6419     0.0   45.9799
14985  14931.0  766.840     13.9714  11.6557     0.0   46.0176
14995  14941.0  767.240     13.9840  11.6682     0.0   46.0403
15005  14951.0  767.640     13.9979  11.6821     0.0   46.0672
15015  14961.0  768.040     14.0112  11.6955     0.0   46.0872
15025  14971.0  768.440     14.0240  11.7083     0.0   46.0957
15035  14981.0  768.840     14.0373  11.7216     0.0   46.1109
15045  14991.0  769.240     14.0508  11.7350     0.0   46.1126
15055  15001.0  769.640     14.0645  11.7488     0.0   46.1640
15065  15011.0  770.040     14.0767  11.7610     0.0   46.1666
15075  15021.0  770.440     14.0916  11.7759     0.0   46.2040
15085  15031.0  770.840     14.1040  11.7883     0.0   46.2359
15095  15041.0  771.240     14.1176  11.8019     0.0   46.2467
15105  15051.0  771.640     14.1305  11.8148     0.0   46.2679
15115  15061.0  772.040     14.1443  11.8286     0.0   46.3006
15125  15071.0  772.440     14.1580  11.8423     0.0   46.3243
15135  15081.0  772.840     14.1710  11.8553     0.0   46.3438
15145  15091.0  773.240     14.1836  11.8679     0.0   46.3151
15155  15101.0  773.640     14.1976  11.8819     0.0   46.3744
15165  15111.0  774.040     14.2103  11.8946     0.0   46.3888
15175  15121.0  774.440     14.2247  11.9090     0.0   46.4079
15185  15131.0  774.840     14.2373  11.9216     0.0   46.4323
15195  15141.0  775.240     14.2507  11.9350     0.0   46.4385
15205  15151.0  775.640     14.2646  11.9488     0.0   46.4870
15215  15161.0  776.040     14.2777  11.9620     0.0   46.4991
15225  15171.0  776.440     14.2911  11.9753     0.0   46.5097
15235  15181.0  776.840     14.3034  11.9877     0.0   46.5213
15245  15191.0  777.240     14.3170  12.0013     0.0   46.5437
15255  15201.0  777.640     14.3303  12.0146     0.0   46.5737
15265  15211.0  778.040     14.3438  12.0280     0.0   46.5746
15275  15221.0  778.440     14.3575  12.0418     0.0   46.6266
15285  15231.0  778.840     14.3706  12.0549     0.0   46.6158
15295  15241.0  779.240     14.3842  12.0685     0.0   46.6497
15305  15251.0  779.640     14.3972  12.0815     0.0   46.6710
15315  15261.0  780.040     14.4114  12.0957     0.0   46.6901
15325  15271.0  780.440     14.4240  12.1083     0.0   46.6782
15335  15281.0  780.840     14.4371  12.1213     0.0   46.7126
15345  15291.0  781.240     14.4499  12.1342     0.0   46.7369
15355  15301.0  781.640     14.4634  12.1477     0.0   46.7437
15365  15311.0  782.040     14.4774  12.1617     0.0   46.7771
15375  15321.0  782.440     14.4896  12.1739     0.0   46.7810
15385  15331.0  782.840     14.5043  12.1886     0.0   46.8064
15395  15341.0  783.240     14.5175  12.2017     0.0   46.8134
15405  15351.0  783.640     14.5304  12.2147     0.0   46.8302
15415  15361.0  784.040     14.5441  12.2284     0.0   46.8707
15425  15371.0  784.440     14.5581  12.2424     0.0   46.8841
15435  15381.0  784.840     14.5717  12.2559     0.0   46.8956
15445  15391.0  785.240     14.5840  12.2683     0.0   46.8914
15455  15401.0  785.640     14.5972  12.2815     0.0   46.9087
15465  15411.0  786.040     14.6108  12.2951     0.0   46.9175
15475  15421.0  786.440     14.6248  12.3091     0.0   46.9546
15485  15431.0  786.840     14.6366  12.3209     0.0   46.9530
15495  15441.0  787.240     14.6508  12.3351     0.0   46.9822
15505  15451.0  787.640     14.6645  12.3487     0.0   46.9723
15515  15461.0  788.040     14.6772  12.3614     0.0   47.0141
15525  15471.0  788.440     14.6908  12.3751     0.0   47.0195
15535  15481.0  788.840     14.7039  12.3882     0.0   47.0412
15545  15491.0  789.240     14.7180  12.4023     0.0   47.0474
15555  15501.0  789.640     14.7300  12.4143     0.0   47.0545
15565  15511.0  790.040     14.7446  12.4289     0.0   47.0750
15575  15521.0  790.440     14.7577  12.4420     0.0   47.0812
15585  15531.0  790.840     14.7710  12.4553     0.0   47.1327
15595  15541.0  791.240     14.7838  12.4681     0.0   47.1225
15605  15551.0  791.640     14.7967  12.4810     0.0   47.1455
15615  15561.0  792.040     14.8112  12.4954     0.0   47.1692
15625  15571.0  792.440     14.8235  12.5078     0.0   47.1530
15635  15581.0  792.840     14.8377  12.5220     0.0   47.1917
15645  15591.0  793.240     14.8506  12.5349     0.0   47.2001
15655  15601.0  793.640     14.8635  12.5477     0.0   47.1999
15665  15611.0  794.040     14.8765  12.5608     0.0   47.2345
15675  15621.0  794.440     14.8911  12.5754     0.0   47.2246
15685  15631.0  794.840     14.9045  12.5888     0.0   47.2491
15695  15641.0  795.240     14.9171  12.6014     0.0   47.2623
15705  15651.0  795.640     14.9308  12.6151     0.0   47.2806
15715  15661.0  796.040     14.9435  12.6278     0.0   47.2898
15725  15671.0  796.440     14.9571  12.6413     0.0   47.3057
15735  15681.0  796.840     14.9710  12.6552     0.0   47.3153
15745  15691.0  797.240     14.9841  12.6684     0.0   47.3101
15755  15701.0  797.640     14.9972  12.6815     0.0   47.3322
15765  15711.0  798.040     15.0093  12.6936     0.0   47.3623
15775  15721.0  798.440     15.0241  12.7083     0.0   47.3534
15785  15731.0  798.840     15.0369  12.7212     0.0   47.3606
15795  15741.0  799.240     15.0512  12.7355     0.0   47.4112
15805  15751.0  799.640     15.0635  12.7478     0.0   47.3890
15815  15761.0  800.040     15.0776  12.7619     0.0   47.4051
15825  15771.0  800.440     15.0911  12.7754     0.0   47.4265
15835  15781.0  800.840     15.1043  12.7886     0.0   47.4331
15845  15791.0  801.240     15.1173  12.8016     0.0   47.4440
15855  15801.0  801.640     15.1302  12.8144     0.0   47.4508
15865  15811.0  802.040     15.1443  12.8286     0.0   47.4419
15875  15821.0  802.440     15.1569  12.8411     0.0   47.4898
15885  15831.0  802.840     15.1710  12.8553     0.0   47.4933
15895  15841.0  803.240     15.1843  12.8686     0.0   47.4987
15905  15851.0  803.640     15.1972  12.8815     0.0   47.5079
15915  15861.0  804.040     15.2111  12.8954     0.0   47.5073
15925  15871.0  804.440     15.2237  12.9080     0.0   47.5278
15935  15881.0  804.840     15.2374  12.9216     0.0   47.5237
15945  15891.0  805.240     15.2509  12.9352     0.0   47.5307
15955  15901.0  805.640     15.2642  12.9485     0.0   47.5516
15965  15911.0  806.040     15.2774  12.9617     0.0   47.5475
15975  15921.0  806.440     15.2902  12.9745     0.0   47.5585
15985  15931.0  806.840     15.3036  12.9879     0.0   47.5701
15995  15941.0  807.240     15.3172  13.0015     0.0   47.5463
16005  15951.0  807.640     15.3304  13.0146     0.0   47.5736
16015  15961.0  808.040     15.3434  13.0277     0.0   47.5735
16025  15971.0  808.440     15.3581  13.0424     0.0   47.6029
16035  15981.0  808.840     15.3709  13.0551     0.0   47.6158
16045  15991.0  809.240     15.3843  13.0686     0.0   47.6199
16055  16001.0  809.640     15.3973  13.0816     0.0   47.6432
16065  16011.0  810.040     15.4105  13.0948     0.0   47.6418
16075  16021.0  810.440     15.4237  13.1080     0.0   47.6294
16085  16031.0  810.840     15.4380  13.1223     0.0   47.6468
16095  16041.0  811.240     15.4508  13.1351     0.0   47.6470
16105  16051.0  811.640     15.4636  13.1479     0.0   47.6563
16115  16061.0  812.040     15.4776  13.1619     0.0   47.6824
16125  16071.0  812.440     15.4902  13.1745     0.0   47.6469
16135  16081.0  812.840     15.5037  13.1880     0.0   47.6560
16145  16091.0  813.240     15.5167  13.2010     0.0   47.6853
16155  16101.0  813.640     15.5311  13.2154     0.0   47.7049
16165  16111.0  814.040     15.5441  13.2284     0.0   47.6920
16175  16121.0  814.440     15.5576  13.2418     0.0   47.7156
16185  16131.0  814.840     15.5711  13.2554     0.0   47.7060
16195  16141.0  815.240     15.5842  13.2685     0.0   47.7182
16205  16151.0  815.640     15.5971  13.2814     0.0   47.7145
16215  16161.0  816.040     15.6109  13.2952     0.0   47.7096
16225  16171.0  816.440     15.6234  13.3077     0.0   47.7050
16235  16181.0  816.840     15.6382  13.3225     0.0   47.7047
16245  16191.0  817.240     15.6505  13.3348     0.0   47.7281
16255  16201.0  817.640     15.6647  13.3489     0.0   47.7087
16265  16211.0  818.040     15.6772  13.3615     0.0   47.7181
16275  16221.0  818.440     15.6904  13.3746     0.0   47.7005
16285  16231.0  818.840     15.7034  13.3877     0.0   47.7179
16295  16241.0  819.240     15.7177  13.4020     0.0   47.7154
16305  16251.0  819.640     15.7305  13.4148     0.0   47.6918
16315  16261.0  820.040     15.7445  13.4288     0.0   47.7039
16325  16271.0  820.440     15.7555  13.4398     0.0   47.6594
16335  16281.0  820.840     15.7698  13.4541     0.0   47.6713
16345  16291.0  821.240     15.7842  13.4685     0.0   47.7000
16355  16301.0  821.640     15.7972  13.4815     0.0   47.6696
16365  16311.0  822.040     15.8110  13.4952     0.0   47.6696
16375  16321.0  822.440     15.8239  13.5082     0.0   47.6701
16385  16331.0  822.840     15.8372  13.5215     0.0   47.6545
16395  16341.0  823.240     15.8504  13.5347     0.0   47.6702
16405  16351.0  823.640     15.8642  13.5485     0.0   47.6724
16415  16361.0  824.040     15.8771  13.5613     0.0   47.6515
16425  16371.0  824.440     15.8905  13.5748     0.0   47.6565
16435  16381.0  824.840     15.9035  13.5878     0.0   47.6589
16445  16391.0  825.240     15.9178  13.6021     0.0   47.6522
16455  16401.0  825.640     15.9308  13.6151     0.0   47.6608
16466  16411.0  826.040     15.9489  13.6332     0.0   47.7774
16476  16421.0  826.440     15.9751  13.6594     0.0   47.9105
16486  16431.0  826.840     16.0019  13.6861     0.0   47.9535
16496  16441.0  827.240     16.0279  13.7122     0.0   47.9682
16506  16451.0  827.640     16.0553  13.7396     0.0   47.9563
16516  16461.0  828.040     16.0824  13.7667     0.0   47.9288
16526  16471.0  828.440     16.1083  13.7926     0.0   47.8848
16536  16481.0  828.840     16.1357  13.8199     0.0   47.8961
16546  16491.0  829.240     16.1619  13.8462     0.0   47.8939
16556  16501.0  829.640     16.1882  13.8725     0.0   47.8954
16566  16511.0  830.040     16.2153  13.8996     0.0   47.8958
16576  16521.0  830.440     16.2418  13.9261     0.0   47.9230
16586  16531.0  830.840     16.2687  13.9530     0.0   47.8893
16596  16541.0  831.240     16.2951  13.9794     0.0   47.8874
16606  16551.0  831.640     16.3222  14.0064     0.0   47.8840
16616  16561.0  832.040     16.3487  14.0330     0.0   47.9366
16626  16571.0  832.440     16.3751  14.0593     0.0   47.9316
16636  16581.0  832.840     16.4025  14.0868     0.0   47.9485
16646  16591.0  833.240     16.4280  14.1123     0.0   47.9608
16656  16601.0  833.640     16.4557  14.1399     0.0   47.9746
16666  16611.0  834.040     16.4815  14.1658     0.0   47.9981
16676  16621.0  834.440     16.5085  14.1928     0.0   48.0140
16686  16631.0  834.840     16.5337  14.2179     0.0   48.0210
16696  16641.0  835.240     16.5617  14.2460     0.0   48.0656
16706  16651.0  835.640     16.5875  14.2718     0.0   48.0944
16716  16661.0  836.040     16.6145  14.2988     0.0   48.1089
16726  16671.0  836.440     16.6415  14.3258     0.0   48.1562
16736  16681.0  836.840     16.6688  14.3531     0.0   48.1952
16746  16691.0  837.240     16.6952  14.3795     0.0   48.1884
16756  16701.0  837.640     16.7212  14.4055     0.0   48.2354
16766  16711.0  838.040     16.7489  14.4331     0.0   48.2984
16776  16721.0  838.440     16.7755  14.4597     0.0   48.3438
16786  16731.0  838.840     16.8024  14.4867     0.0   48.3621
16796  16741.0  839.240     16.8285  14.5127     0.0   48.4122
16806  16751.0  839.640     16.8549  14.5391     0.0   48.4202
16816  16761.0  840.040     16.8815  14.5658     0.0   48.4845
16826  16771.0  840.440     16.9085  14.5928     0.0   48.5077
16836  16781.0  840.840     16.9354  14.6197     0.0   48.5624
16846  16791.0  841.240     16.9617  14.6460     0.0   48.5952
16856  16801.0  841.640     16.9888  14.6731     0.0   48.6290
16866  16811.0  842.040     17.0156  14.6999     0.0   48.6767
16876  16821.0  842.440     17.0417  14.7260     0.0   48.7120
16886  16831.0  842.840     17.0682  14.7525     0.0   48.7690
16896  16841.0  843.240     17.0949  14.7792     0.0   48.8041
16906  16851.0  843.640     17.1226  14.8069     0.0   48.8412
16916  16861.0  844.040     17.1489  14.8332     0.0   48.8891
16926  16871.0  844.440     17.1759  14.8602     0.0   48.9070
16936  16881.0  844.840     17.2030  14.8873     0.0   48.9355
16946  16891.0  845.240     17.2289  14.9132     0.0   48.9703
16956  16901.0  845.640     17.2548  14.9391     0.0   49.0151
16966  16911.0  846.040     17.2819  14.9662     0.0   48.9976
16976  16921.0  846.440     17.3089  14.9932     0.0   49.0656
16986  16931.0  846.840     17.3346  15.0189     0.0   49.1120
16996  16941.0  847.240     17.3619  15.0462     0.0   49.1399
17006  16951.0  847.640     17.3884  15.0727     0.0   49.1749
17016  16961.0  848.040     17.4154  15.0997     0.0   49.1835
17026  16971.0  848.440     17.4418  15.1261     0.0   49.2116
17036  16981.0  848.840     17.4684  15.1527     0.0   49.2560
17046  16991.0  849.240     17.4961  15.1803     0.0   49.2740
17056  17001.0  849.640     17.5214  15.2057     0.0   49.3016
17066  17011.0  850.040     17.5486  15.2328     0.0   49.3494
17076  17021.0  850.440     17.5742  15.2585     0.0   49.3562
17086  17031.0  850.840     17.6017  15.2860     0.0   49.3857
17096  17041.0  851.240     17.6293  15.3136     0.0   49.4177
17106  17051.0  851.640     17.6549  15.3392     0.0   49.4453
17116  17061.0  852.040     17.6818  15.3661     0.0   49.4574
17126  17071.0  852.440     17.7084  15.3927     0.0   49.4924
17136  17081.0  852.840     17.7351  15.4194     0.0   49.5230
17146  17091.0  853.240     17.7623  15.4466     0.0   49.5334
17156  17101.0  853.640     17.7893  15.4736     0.0   49.5876
17166  17111.0  854.040     17.8152  15.4995     0.0   49.5937
17176  17121.0  854.440     17.8421  15.5264     0.0   49.6090
17186  17131.0  854.840     17.8684  15.5526     0.0   49.6177
17196  17141.0  855.240     17.8949  15.5792     0.0   49.6523
17206  17151.0  855.640     17.9218  15.6061     0.0   49.6744
17216  17161.0  856.040     17.9485  15.6328     0.0   49.6974
17226  17171.0  856.440     17.9756  15.6599     0.0   49.7449
17236  17181.0  856.840     18.0021  15.6864     0.0   49.7347
17246  17191.0  857.240     18.0285  15.7128     0.0   49.7547
17256  17201.0  857.640     18.0553  15.7396     0.0   49.7837
17266  17211.0  858.040     18.0818  15.7660     0.0   49.7887
17276  17221.0  858.440     18.1094  15.7937     0.0   49.8259
17286  17231.0  858.840     18.1348  15.8190     0.0   49.8413
17296  17241.0  859.240     18.1627  15.8470     0.0   49.8719
17306  17251.0  859.640     18.1885  15.8728     0.0   49.8749
17316  17261.0  860.040     18.2157  15.8999     0.0   49.8987
17326  17271.0  860.440     18.2426  15.9269     0.0   49.9331
17336  17281.0  860.840     18.2675  15.9518     0.0   49.9548
17346  17291.0  861.240     18.2953  15.9796     0.0   49.9570
17356  17301.0  861.640     18.3216  16.0059     0.0   49.9728
17366  17311.0  862.040     18.3487  16.0330     0.0   49.9599
17376  17321.0  862.440     18.3759  16.0602     0.0   49.9715
17386  17331.0  862.840     18.4012  16.0855     0.0   49.9342
17396  17341.0  863.240     18.4279  16.1122     0.0   49.8774
17406  17351.0  863.640     18.4553  16.1396     0.0   49.8647
17416  17361.0  864.040     18.4825  16.1667     0.0   49.7908
17426  17371.0  864.440     18.5088  16.1931     0.0   49.6467
17436  17381.0  864.840     18.5359  16.2202     0.0   49.2724
17446  17391.0  865.240     18.5613  16.2456     0.0   47.6461
17456  17401.0  865.640     18.5899  16.2742     0.0   33.0389
17466  17411.0  866.040     18.6155  16.2998     0.0   33.2751
17476  17421.0  866.440     18.6423  16.3266     0.0   33.4931
17486  17431.0  866.840     18.6688  16.3531     0.0   33.4642
17496  17441.0  867.240     18.6959  16.3802     0.0   33.2338
17506  17451.0  867.640     18.7231  16.4074     0.0   32.7596
17516  17461.0  868.040     18.7489  16.4332     0.0   32.0688
17526  17471.0  868.440     18.7763  16.4606     0.0   30.9177