           Num   Time(s)  PosAbs(mm)  Pos(mm)  Pos(%)  Load(kN)
0          1.0     0.005     -2.0849  -0.0012     0.0    0.0844
10        11.0     2.005     -2.0181   0.0656     0.0    0.1272
20        21.0     4.005     -1.9515   0.1321     0.0    0.1644
30        31.0     6.005     -1.8847   0.1990     0.0    0.2037
40        41.0     8.005     -1.8181   0.2656     0.0    0.2493
50        51.0    10.005     -1.7512   0.3325     0.0    0.2931
60        61.0    12.005     -1.6846   0.3991     0.0    0.3444
70        71.0    14.005     -1.6179   0.4658     0.0    0.3968
80        81.0    16.005     -1.5513   0.5324     0.0    0.4565
90        91.0    18.005     -1.4847   0.5990     0.0    0.5160
100      101.0    20.005     -1.4180   0.6657     0.0    0.5791
110      111.0    22.005     -1.3513   0.7323     0.0    0.6511
120      121.0    24.005     -1.2846   0.7990     0.0    0.7204
130      131.0    26.005     -1.2181   0.8656     0.0    0.8017
140      141.0    28.005     -1.1515   0.9321     0.0    0.8819
150      151.0    30.005     -1.0848   0.9988     0.0    0.9681
160      161.0    32.005     -1.0181   1.0656     0.0    1.0620
170      171.0    34.005     -0.9515   1.1321     0.0    1.1592
180      181.0    36.005     -0.8847   1.1990     0.0    1.2633
190      191.0    38.005     -0.8183   1.2654     0.0    1.3732
200      201.0    40.005     -0.7514   1.3322     0.0    1.4937
210      211.0    42.005     -0.6850   1.3987     0.0    1.6164
220      221.0    44.005     -0.6182   1.4655     0.0    1.7497
230      231.0    46.005     -0.5515   1.5322     0.0    1.8916
240      241.0    48.005     -0.4850   1.5986     0.0    2.0405
250      251.0    50.005     -0.4184   1.6653     0.0    2.1970
260      261.0    52.005     -0.3519   1.7318     0.0    2.3622
270      271.0    54.005     -0.2852   1.7985     0.0    2.5418
280      281.0    56.005     -0.2185   1.8652     0.0    2.6633
290      291.0    58.005     -0.1519   1.9318     0.0    2.6693
300      301.0    60.005     -0.0853   1.9983     0.0    2.6756
310      311.0    62.005     -0.0185   2.0651     0.0    2.6974
320      321.0    64.005      0.0482   2.1319     0.0    2.7406
330      331.0    66.005      0.1147   2.1984     0.0    2.7550
340      341.0    68.005      0.1816   2.2652     0.0    2.7718
350      351.0    70.005      0.2482   2.3319     0.0    2.7920
360      361.0    72.005      0.3148   2.3984     0.0    2.8050
370      371.0    74.005      0.3813   2.4650     0.0    2.8209
380      381.0    76.005      0.4481   2.5318     0.0    2.8450
390      391.0    78.005      0.5149   2.5985     0.0    2.8710
400      401.0    80.005      0.5814   2.6651     0.0    2.8876
410      411.0    82.005      0.6480   2.7316     0.0    2.9523
420      421.0    84.005      0.7148   2.7984     0.0    3.0664
430      431.0    86.005      0.7814   2.8651     0.0    3.1041
440      441.0    88.005      0.8481   2.9318     0.0    3.1828
450      451.0    90.005      0.9148   2.9984     0.0    3.2795
460      461.0    92.005      0.9814   3.0650     0.0    3.2839
470      471.0    94.005      1.0478   3.1315     0.0    3.2874
480      481.0    96.005      1.1148   3.1985     0.0    3.2958
490      491.0    98.005      1.1813   3.2649     0.0    3.3062
500      501.0   100.005      1.2480   3.3316     0.0    3.2983
510      511.0   102.005      1.3144   3.3980     0.0    3.2983
520      521.0   104.005      1.3814   3.4650     0.0    3.3145
530      531.0   106.005      1.4481   3.5317     0.0    3.3367
540      541.0   108.005      1.5146   3.5983     0.0    3.3519
550      551.0   110.005      1.5812   3.6649     0.0    3.3639
560      561.0   112.005      1.6481   3.7318     0.0    3.3598
570      571.0   114.005      1.7146   3.7983     0.0    3.3611
580      581.0   116.005      1.7812   3.8649     0.0    3.3650
590      591.0   118.005      1.8480   3.9317     0.0    3.3702
600      601.0   120.005      1.9143   3.9980     0.0    3.3807
610      611.0   122.005      1.9809   4.0646     0.0    3.3873
620      621.0   124.005      2.0478   4.1315     0.0    3.3943
630      631.0   126.005      2.1146   4.1983     0.0    3.4004
640      641.0   128.005      2.1810   4.2647     0.0    3.4390
650      651.0   130.005      2.2478   4.3315     0.0    3.6048
660      661.0   132.005      2.3146   4.3982     0.0    3.6746
670      671.0   134.005      2.3813   4.4650     0.0    3.7525
680      681.0   136.005      2.4478   4.5314     0.0    3.8655
690      691.0   138.005      2.5146   4.5982     0.0    3.9753
700      701.0   140.005      2.5812   4.6649     0.0    4.1059
710      711.0   142.005      2.6477   4.7314     0.0    4.1971
720      721.0   144.005      2.7147   4.7984     0.0    4.2383
730      731.0   146.005      2.7815   4.8652     0.0    4.5175
740      741.0   148.005      2.8478   4.9315     0.0    4.8261
750      751.0   150.005      2.9148   4.9984     0.0    5.0846
760      761.0   152.005      2.9806   5.0642     0.0    5.2989
770      771.0   154.005      3.0473   5.1310     0.0    5.4947
780      781.0   156.005      3.1139   5.1976     0.0    5.6635
790      791.0   158.005      3.1804   5.2640     0.0    5.8601
800      801.0   160.005      3.2471   5.3308     0.0    6.0906
810      811.0   162.005      3.3140   5.3976     0.0    6.2948
820      821.0   164.005      3.3805   5.4641     0.0    6.4556
830      831.0   166.005      3.4474   5.5310     0.0    6.6651
840      841.0   168.005      3.5138   5.5975     0.0    6.8727
850      851.0   170.005      3.5805   5.6642     0.0    7.1046
860      861.0   172.005      3.6476   5.7312     0.0    7.3634
870      871.0   174.005      3.7139   5.7976     0.0    7.6188
880      881.0   176.005      3.7812   5.8648     0.0    8.0163
890      891.0   178.005      3.8471   5.9308     0.0    8.4288
900      901.0   180.005      3.9139   5.9975     0.0    8.8545
910      911.0   182.005      3.9803   6.0640     0.0    9.2680
920      921.0   184.005      4.0474   6.1311     0.0    9.7142
930      931.0   186.005      4.1141   6.1978     0.0   10.1757
940      941.0   188.005      4.1807   6.2643     0.0   10.6649
950      951.0   190.005      4.2473   6.3310     0.0   11.1657
960      961.0   192.005      4.3140   6.3977     0.0   11.7080
970      971.0   194.005      4.3805   6.4641     0.0   12.2741
980      981.0   196.005      4.4471   6.5308     0.0   12.8841
990      991.0   198.005      4.5139   6.5975     0.0   13.5296
1000    1001.0   200.005      4.5803   6.6639     0.0   14.1916
1010    1011.0   202.005      4.6473   6.7309     0.0   14.8812
1026    1021.0   202.720      4.6477   6.7313     0.0   14.7035
1036    1031.0   203.120      4.6480   6.7316     0.0   14.6448
1046    1041.0   203.520      4.6478   6.7314     0.0   14.5869
1056    1051.0   203.920      4.6482   6.7319     0.0   14.5451
1066    1061.0   204.320      4.6477   6.7314     0.0   14.4896
1076    1071.0   204.720      4.6478   6.7315     0.0   14.4606
1086    1081.0   205.120      4.6478   6.7315     0.0   14.4212
1096    1091.0   205.520      4.6480   6.7316     0.0   14.3905
1106    1101.0   205.920      4.6478   6.7315     0.0   14.3528
1116    1111.0   206.320      4.6480   6.7317     0.0   14.3311
1126    1121.0   206.720      4.6481   6.7318     0.0   14.2981
1136    1131.0   207.120      4.6480   6.7316     0.0   14.2743
1146    1141.0   207.520      4.6480   6.7317     0.0   14.2446
1156    1151.0   207.920      4.6482   6.7319     0.0   14.2231
1166    1161.0   208.320      4.6480   6.7317     0.0   14.1974
1176    1171.0   208.720      4.6480   6.7317     0.0   14.1772
1186    1181.0   209.120      4.6480   6.7317     0.0   14.1591
1196    1191.0   209.520      4.6480   6.7317     0.0   14.1385
1206    1201.0   209.920      4.6479   6.7315     0.0   14.1202
1216    1211.0   210.320      4.6482   6.7319     0.0   14.1000
1227    1221.0   210.720      4.6480   6.7317     0.0   14.0981
1237    1231.0   211.120      4.6479   6.7315     0.0   14.0765
1247    1241.0   211.520      4.6483   6.7319     0.0   14.0450
1257    1251.0   211.920      4.6479   6.7316     0.0   14.0324
1267    1261.0   212.320      4.6485   6.7321     0.0   14.0096
1277    1271.0   212.720      4.6478   6.7315     0.0   13.9817
1287    1281.0   213.120      4.6483   6.7320     0.0   13.9783
1297    1291.0   213.520      4.6479   6.7315     0.0   13.9556
1307    1301.0   213.920      4.6482   6.7319     0.0   13.9459
1317    1311.0   214.320      4.6478   6.7315     0.0   13.9305
1327    1321.0   214.720      4.6481   6.7317     0.0   13.9255
1337    1331.0   215.120      4.6479   6.7316     0.0   13.9087
1347    1341.0   215.520      4.6487   6.7323     0.0   13.8988
1357    1351.0   215.920      4.6480   6.7317     0.0   13.8788
1367    1361.0   216.320      4.6483   6.7320     0.0   13.8668
1377    1371.0   216.720      4.6482   6.7319     0.0   13.8502
1387    1381.0   217.120      4.6483   6.7320     0.0   13.8397
1397    1391.0   217.520      4.6480   6.7316     0.0   13.8256
1407    1401.0   217.920      4.6484   6.7321     0.0   13.8155
1417    1411.0   218.320      4.6482   6.7319     0.0   13.8022
1427    1421.0   218.720      4.6487   6.7323     0.0   13.7919
1437    1431.0   219.120      4.6479   6.7315     0.0   13.7764
1447    1441.0   219.520      4.6484   6.7321     0.0   13.7700
1457    1451.0   219.920      4.6485   6.7321     0.0   13.7582
1467    1461.0   220.320      4.6484   6.7321     0.0   13.7559
1477    1471.0   220.720      4.6481   6.7318     0.0   13.7380
1487    1481.0   221.120      4.6483   6.7319     0.0   13.7337
1497    1491.0   221.520      4.6480   6.7317     0.0   13.7220
1507    1501.0   221.920      4.6482   6.7319     0.0   13.7138
1517    1511.0   222.320      4.6484   6.7321     0.0   13.7045
1527    1521.0   222.720      4.6481   6.7318     0.0   13.6990
1537    1531.0   223.120      4.6483   6.7319     0.0   13.6870
1547    1541.0   223.520      4.6486   6.7322     0.0   13.6818
1557    1551.0   223.920      4.6481   6.7318     0.0   13.6922
1567    1561.0   224.320      4.6485   6.7321     0.0   13.6711
1577    1571.0   224.720      4.6483   6.7320     0.0   13.6525
1587    1581.0   225.120      4.6484   6.7321     0.0   13.6662
1597    1591.0   225.520      4.6481   6.7318     0.0   13.6379
1607    1601.0   225.920      4.6482   6.7319     0.0   13.6269
1617    1611.0   226.320      4.6481   6.7317     0.0   13.6043
1627    1621.0   226.720      4.6483   6.7320     0.0   13.6131
1637    1631.0   227.120      4.6482   6.7318     0.0   13.6001
1647    1641.0   227.520      4.6482   6.7318     0.0   13.5926
1657    1651.0   227.920      4.6482   6.7318     0.0   13.5788
1667    1661.0   228.320      4.6482   6.7319     0.0   13.5659
1677    1671.0   228.720      4.6482   6.7319     0.0   13.5560
1687    1681.0   229.120      4.6482   6.7319     0.0   13.5550
1697    1691.0   229.520      4.6483   6.7320     0.0   13.5424
1707    1701.0   229.920      4.6481   6.7318     0.0   13.5386
1717    1711.0   230.320      4.6482   6.7319     0.0   13.5375
1727    1721.0   230.720      4.6483   6.7320     0.0   13.5304
1737    1731.0   231.120      4.6479   6.7316     0.0   13.5240
1747    1741.0   231.520      4.6481   6.7318     0.0   13.5154
1757    1751.0   231.920      4.6482   6.7318     0.0   13.4996
1767    1761.0   232.320      4.6484   6.7321     0.0   13.4965
1777    1771.0   232.720      4.6481   6.7318     0.0   13.4910
1787    1781.0   233.120      4.6483   6.7319     0.0   13.4883
1797    1791.0   233.520      4.6482   6.7319     0.0   13.4772
1807    1801.0   233.920      4.6484   6.7321     0.0   13.4474
1817    1811.0   234.320      4.6484   6.7321     0.0   13.4617
1827    1821.0   234.720      4.6482   6.7319     0.0   13.4726
1837    1831.0   235.120      4.6485   6.7322     0.0   13.4565
1847    1841.0   235.520      4.6480   6.7316     0.0   13.4511
1857    1851.0   235.920      4.6483   6.7319     0.0   13.4444
1867    1861.0   236.320      4.6480   6.7317     0.0   13.4297
1877    1871.0   236.720      4.6481   6.7318     0.0   13.4352
1887    1881.0   237.120      4.6481   6.7318     0.0   13.4210
1897    1891.0   237.520      4.6482   6.7318     0.0   13.4207
1907    1901.0   237.920      4.6481   6.7317     0.0   13.4044
1917    1911.0   238.320      4.6481   6.7317     0.0   13.3914
1927    1921.0   238.720      4.6479   6.7316     0.0   13.3803
1937    1931.0   239.120      4.6485   6.7322     0.0   13.3880
1947    1941.0   239.520      4.6482   6.7318     0.0   13.3851
1957    1951.0   239.920      4.6483   6.7319     0.0   13.3825
1967    1961.0   240.320      4.6482   6.7318     0.0   13.3755
1977    1971.0   240.720      4.6481   6.7317     0.0   13.3721
1987    1981.0   241.120      4.6480   6.7317     0.0   13.3604
1997    1991.0   241.520      4.6483   6.7320     0.0   13.3614
2007    2001.0   241.920      4.6481   6.7317     0.0   13.3516
2017    2011.0   242.320      4.6481   6.7317     0.0   13.3545
2027    2021.0   242.720      4.6481   6.7318     0.0   13.3466
2037    2031.0   243.120      4.6481   6.7318     0.0   13.3414
2047    2041.0   243.520      4.6481   6.7318     0.0   13.3456
2057    2051.0   243.920      4.6482   6.7318     0.0   13.3335
2067    2061.0   244.320      4.6483   6.7320     0.0   13.3293
2077    2071.0   244.720      4.6480   6.7316     0.0   13.3239
2087    2081.0   245.120      4.6482   6.7319     0.0   13.3184
2097    2091.0   245.520      4.6481   6.7318     0.0   13.3125
2107    2101.0   245.920      4.6484   6.7321     0.0   13.3077
2117    2111.0   246.320      4.6479   6.7315     0.0   13.3045
2127    2121.0   246.720      4.6486   6.7323     0.0   13.2997
2137    2131.0   247.120      4.6481   6.7318     0.0   13.2889
2147    2141.0   247.520      4.6481   6.7318     0.0   13.2903
2157    2151.0   247.920      4.6481   6.7318     0.0   13.2868
2167    2161.0   248.320      4.6480   6.7316     0.0   13.2811
2177    2171.0   248.720      4.6482   6.7319     0.0   13.2773
2187    2181.0   249.120      4.6482   6.7319     0.0   13.2756
2197    2191.0   249.520      4.6479   6.7316     0.0   13.2700
2207    2201.0   249.920      4.6484   6.7321     0.0   13.2653
2217    2211.0   250.320      4.6479   6.7316     0.0   13.2573
2227    2221.0   250.720      4.6482   6.7319     0.0   13.2521
2237    2231.0   251.120      4.6482   6.7319     0.0   13.2448
2247    2241.0   251.520      4.6480   6.7317     0.0   13.2398
2257    2251.0   251.920      4.6486   6.7323     0.0   13.2348
2267    2261.0   252.320      4.6481   6.7318     0.0   13.2274
2277    2271.0   252.720      4.6483   6.7320     0.0   13.2295
2287    2281.0   253.120      4.6479   6.7316     0.0   13.2169
2297    2291.0   253.520      4.6481   6.7318     0.0   13.2196
2307    2301.0   253.920      4.6479   6.7316     0.0   13.2070
2317    2311.0   254.320      4.6484   6.7321     0.0   13.2105
2327    2321.0   254.720      4.6479   6.7315     0.0   13.2081
2337    2331.0   255.120      4.6481   6.7318     0.0   13.2048
2347    2341.0   255.520      4.6482   6.7319     0.0   13.1984
2357    2351.0   255.920      4.6481   6.7317     0.0   13.1971
2367    2361.0   256.320      4.6481   6.7317     0.0   13.1942
2377    2371.0   256.720      4.6480   6.7317     0.0   13.1936
2394    2381.0   257.185      4.6574   6.7411     0.0   13.3844
2404    2391.0   257.585      4.6707   6.7543     0.0   13.6476
2414    2401.0   257.985      4.6837   6.7673     0.0   13.9074
2424    2411.0   258.385      4.6975   6.7811     0.0   14.1563
2434    2421.0   258.785      4.7104   6.7941     0.0   14.3950
2444    2431.0   259.185      4.7235   6.8071     0.0   14.6167
2454    2441.0   259.585      4.7366   6.8203     0.0   14.8387
2464    2451.0   259.985      4.7503   6.8340     0.0   15.0632
2474    2461.0   260.385      4.7638   6.8474     0.0   15.2790
2484    2471.0   260.785      4.7772   6.8609     0.0   15.4811
2494    2481.0   261.185      4.7905   6.8742     0.0   15.6847
2504    2491.0   261.585      4.8037   6.8874     0.0   15.8848
2514    2501.0   261.985      4.8170   6.9007     0.0   16.0808
2524    2511.0   262.385      4.8303   6.9139     0.0   16.2786
2534    2521.0   262.785      4.8433   6.9270     0.0   16.4648
2544    2531.0   263.185      4.8567   6.9404     0.0   16.6662
2554    2541.0   263.585      4.8704   6.9540     0.0   16.8544
2564    2551.0   263.985      4.8837   6.9673     0.0   17.0439
2574    2561.0   264.385      4.8967   6.9803     0.0   17.2264
2584    2571.0   264.785      4.9101   6.9937     0.0   17.4081
2594    2581.0   265.185      4.9235   7.0072     0.0   17.5983
2604    2591.0   265.585      4.9368   7.0205     0.0   17.7912
2614    2601.0   265.985      4.9502   7.0339     0.0   17.9637
2624    2611.0   266.385      4.9631   7.0467     0.0   18.1437
2634    2621.0   266.785      4.9766   7.0602     0.0   18.3116
2644    2631.0   267.185      4.9902   7.0739     0.0   18.5024
2654    2641.0   267.585      5.0033   7.0869     0.0   18.6749
2664    2651.0   267.985      5.0165   7.1002     0.0   18.8555
2674    2661.0   268.385      5.0296   7.1133     0.0   19.0317
2684    2671.0   268.785      5.0431   7.1268     0.0   19.2049
2694    2681.0   269.185      5.0568   7.1404     0.0   19.3887
2704    2691.0   269.585      5.0699   7.1536     0.0   19.5682
2714    2701.0   269.985      5.0833   7.1670     0.0   19.7409
2724    2711.0   270.385      5.0965   7.1802     0.0   19.9106
2734    2721.0   270.785      5.1100   7.1937     0.0   20.0948
2744    2731.0   271.185      5.1234   7.2071     0.0   20.2672
2754    2741.0   271.585      5.1366   7.2202     0.0   20.4154
2764    2751.0   271.985      5.1501   7.2338     0.0   20.5666
2774    2761.0   272.385      5.1635   7.2472     0.0   20.7046
2784    2771.0   272.785      5.1762   7.2599     0.0   20.8541
2794    2781.0   273.185      5.1900   7.2736     0.0   21.0214
2804    2791.0   273.585      5.2032   7.2869     0.0   21.1791
2814    2801.0   273.985      5.2165   7.3002     0.0   21.3330
2824    2811.0   274.385      5.2295   7.3131     0.0   21.4874
2834    2821.0   274.785      5.2429   7.3266     0.0   21.6308
2844    2831.0   275.185      5.2569   7.3406     0.0   21.7972
2854    2841.0   275.585      5.2702   7.3539     0.0   21.9495
2864    2851.0   275.985      5.2833   7.3670     0.0   22.1109
2874    2861.0   276.385      5.2962   7.3799     0.0   22.2601
2884    2871.0   276.785      5.3099   7.3936     0.0   22.4201
2894    2881.0   277.185      5.3233   7.4069     0.0   22.5730
2904    2891.0   277.585      5.3366   7.4203     0.0   22.7226
2914    2901.0   277.985      5.3499   7.4336     0.0   22.8714
2924    2911.0   278.385      5.3631   7.4467     0.0   23.0268
2934    2921.0   278.785      5.3765   7.4602     0.0   23.1828
2944    2931.0   279.185      5.3898   7.4735     0.0   23.3429
2954    2941.0   279.585      5.4032   7.4868     0.0   23.5158
2964    2951.0   279.985      5.4163   7.4999     0.0   23.6712
2974    2961.0   280.385      5.4299   7.5136     0.0   23.8436
2984    2971.0   280.785      5.4430   7.5266     0.0   24.0009
2994    2981.0   281.185      5.4566   7.5403     0.0   24.1791
3004    2991.0   281.585      5.4698   7.5534     0.0   24.3359
3014    3001.0   281.985      5.4830   7.5667     0.0   24.5032
3024    3011.0   282.385      5.4965   7.5801     0.0   24.6798
3034    3021.0   282.785      5.5098   7.5935     0.0   24.8624
3044    3031.0   283.164      5.5227   7.6063     0.0   25.0272
3060    3041.0   283.595      5.5109   7.5946     0.0   24.6012
3070    3051.0   283.995      5.5106   7.5942     0.0   24.5142
3080    3061.0   284.395      5.5105   7.5941     0.0   24.4507
3090    3071.0   284.795      5.5109   7.5946     0.0   24.3796
3100    3081.0   285.195      5.5109   7.5945     0.0   24.3118
3110    3091.0   285.595      5.5109   7.5946     0.0   24.2616
3120    3101.0   285.995      5.5111   7.5947     0.0   24.2076
3130    3111.0   286.395      5.5109   7.5945     0.0   24.1631
3140    3121.0   286.795      5.5104   7.5941     0.0   24.1118
3150    3131.0   287.195      5.5109   7.5946     0.0   24.0792
3160    3141.0   287.595      5.5107   7.5944     0.0   24.0337
3170    3151.0   287.995      5.5108   7.5945     0.0   23.9971
3180    3161.0   288.395      5.5105   7.5942     0.0   23.9554
3190    3171.0   288.795      5.5109   7.5946     0.0   23.9239
3200    3181.0   289.195      5.5107   7.5944     0.0   23.8842
3210    3191.0   289.595      5.5105   7.5941     0.0   23.8594
3220    3201.0   289.995      5.5110   7.5947     0.0   23.8164
3230    3211.0   290.395      5.5110   7.5947     0.0   23.7934
3240    3221.0   290.795      5.5106   7.5942     0.0   23.7568
3250    3231.0   291.195      5.5112   7.5949     0.0   23.7368
3261    3241.0   291.595      5.5109   7.5946     0.0   23.7047
3271    3251.0   291.995      5.5111   7.5948     0.0   23.6850
3281    3261.0   292.395      5.5108   7.5944     0.0   23.6503
3291    3271.0   292.795      5.5113   7.5950     0.0   23.6372
3301    3281.0   293.195      5.5110   7.5947     0.0   23.6077
3311    3291.0   293.595      5.5109   7.5945     0.0   23.5842
3321    3301.0   293.995      5.5111   7.5947     0.0   23.5543
3331    3311.0   294.395      5.5111   7.5948     0.0   23.5403
3341    3321.0   294.795      5.5110   7.5946     0.0   23.5108
3351    3331.0   295.195      5.5107   7.5943     0.0   23.4919
3361    3341.0   295.595      5.5111   7.5948     0.0   23.4770
3371    3351.0   295.995      5.5109   7.5946     0.0   23.4465
3381    3361.0   296.395      5.5113   7.5950     0.0   23.4343
3391    3371.0   296.795      5.5110   7.5946     0.0   23.4158
3401    3381.0   297.195      5.5112   7.5948     0.0   23.3955
3411    3391.0   297.595      5.5108   7.5945     0.0   23.3816
3421    3401.0   297.995      5.5112   7.5949     0.0   23.3714
3431    3411.0   298.395      5.5107   7.5944     0.0   23.3411
3441    3421.0   298.795      5.5112   7.5948     0.0   23.3330
3451    3431.0   299.195      5.5107   7.5944     0.0   23.3093
3461    3441.0   299.595      5.5110   7.5947     0.0   23.2939
3471    3451.0   299.995      5.5108   7.5944     0.0   23.2745
3481    3461.0   300.395      5.5112   7.5949     0.0   23.2703
3491    3471.0   300.795      5.5111   7.5947     0.0   23.2500
3501    3481.0   301.195      5.5111   7.5948     0.0   23.2343
3511    3491.0   301.595      5.5110   7.5946     0.0   23.2236
3521    3501.0   301.995      5.5113   7.5949     0.0   23.2157
3531    3511.0   302.395      5.5111   7.5948     0.0   23.1896
3541    3521.0   302.795      5.5109   7.5946     0.0   23.1757
3551    3531.0   303.195      5.5109   7.5946     0.0   23.1586
3561    3541.0   303.595      5.5110   7.5946     0.0   23.1527
3571    3551.0   303.995      5.5112   7.5949     0.0   23.1602
3581    3561.0   304.395      5.5110   7.5947     0.0   23.1104
3591    3571.0   304.795      5.5111   7.5948     0.0   23.1113
3601    3581.0   305.195      5.5111   7.5948     0.0   23.1145
3611    3591.0   305.595      5.5110   7.5946     0.0   23.0813
3621    3601.0   305.995      5.5108   7.5944     0.0   23.0591
3631    3611.0   306.395      5.5112   7.5949     0.0   23.0714
3641    3621.0   306.795      5.5112   7.5948     0.0   23.0438
3651    3631.0   307.195      5.5116   7.5953     0.0   23.0382
3661    3641.0   307.595      5.5111   7.5947     0.0   23.0279
3671    3651.0   307.995      5.5112   7.5949     0.0   23.0109
3681    3661.0   308.395      5.5110   7.5947     0.0   23.0025
3691    3671.0   308.795      5.5112   7.5948     0.0   22.9877
3701    3681.0   309.195      5.5112   7.5948     0.0   22.9687
3711    3691.0   309.595      5.5115   7.5952     0.0   22.9726
3721    3701.0   309.995      5.5115   7.5952     0.0   22.9611
3731    3711.0   310.395      5.5114   7.5950     0.0   22.9389
3741    3721.0   310.795      5.5110   7.5947     0.0   22.9353
3751    3731.0   311.195      5.5113   7.5950     0.0   22.9270
3761    3741.0   311.595      5.5113   7.5950     0.0   22.9208
3771    3751.0   311.995      5.5114   7.5950     0.0   22.9097
3781    3761.0   312.395      5.5110   7.5947     0.0   22.9128
3791    3771.0   312.795      5.5110   7.5946     0.0   22.9094
3801    3781.0   313.195      5.5113   7.5949     0.0   22.8896
3811    3791.0   313.595      5.5109   7.5946     0.0   22.8874
3821    3801.0   313.995      5.5114   7.5950     0.0   22.8884
3831    3811.0   314.395      5.5111   7.5948     0.0   22.8561
3841    3821.0   314.795      5.5112   7.5949     0.0   22.8076
3851    3831.0   315.195      5.5109   7.5946     0.0   22.8272
3861    3841.0   315.595      5.5117   7.5953     0.0   22.7987
3871    3851.0   315.995      5.5112   7.5948     0.0   22.8299
3881    3861.0   316.395      5.5112   7.5949     0.0   22.8136
3891    3871.0   316.795      5.5110   7.5946     0.0   22.8495
3901    3881.0   317.195      5.5112   7.5948     0.0   22.8344
3911    3891.0   317.595      5.5111   7.5948     0.0   22.8003
3921    3901.0   317.995      5.5109   7.5946     0.0   22.7940
3931    3911.0   318.395      5.5114   7.5951     0.0   22.7928
3941    3921.0   318.795      5.5110   7.5947     0.0   22.7770
3951    3931.0   319.195      5.5111   7.5947     0.0   22.7707
3961    3941.0   319.595      5.5111   7.5948     0.0   22.7492
3971    3951.0   319.995      5.5117   7.5953     0.0   22.7396
3981    3961.0   320.395      5.5112   7.5949     0.0   22.7366
3991    3971.0   320.795      5.5113   7.5950     0.0   22.7294
4001    3981.0   321.195      5.5110   7.5946     0.0   22.7648
4011    3991.0   321.595      5.5113   7.5950     0.0   22.7477
4021    4001.0   321.995      5.5110   7.5947     0.0   22.7448
4031    4011.0   322.395      5.5110   7.5946     0.0   22.7195
4041    4021.0   322.795      5.5113   7.5950     0.0   22.7213
4051    4031.0   323.195      5.5112   7.5948     0.0   22.7121
4061    4041.0   323.595      5.5115   7.5952     0.0   22.6989
4071    4051.0   323.995      5.5111   7.5947     0.0   22.6864
4081    4061.0   324.395      5.5114   7.5950     0.0   22.6894
4091    4071.0   324.795      5.5110   7.5947     0.0   22.6649
4101    4081.0   325.195      5.5114   7.5950     0.0   22.6443
4111    4091.0   325.595      5.5112   7.5949     0.0   22.6559
4121    4101.0   325.995      5.5114   7.5951     0.0   22.6491
4131    4111.0   326.395      5.5117   7.5953     0.0   22.6496
4141    4121.0   326.795      5.5110   7.5947     0.0   22.6283
4151    4131.0   327.195      5.5116   7.5952     0.0   22.6227
4161    4141.0   327.595      5.5113   7.5949     0.0   22.6102
4171    4151.0   327.995      5.5110   7.5947     0.0   22.6014
4181    4161.0   328.395      5.5111   7.5948     0.0   22.6076
4191    4171.0   328.795      5.5113   7.5950     0.0   22.5914
4201    4181.0   329.195      5.5113   7.5949     0.0   22.5464
4211    4191.0   329.595      5.5112   7.5949     0.0   22.5294
4221    4201.0   329.995      5.5113   7.5950     0.0   22.5113
4231    4211.0   330.395      5.5108   7.5945     0.0   22.4912
4241    4221.0   330.795      5.5116   7.5952     0.0   22.5154
4251    4231.0   331.195      5.5113   7.5950     0.0   22.5019
4261    4241.0   331.595      5.5117   7.5953     0.0   22.4829
4271    4251.0   331.995      5.5108   7.5945     0.0   22.4657
4281    4261.0   332.395      5.5115   7.5951     0.0   22.4699
4291    4271.0   332.795      5.5112   7.5949     0.0   22.4723
4301    4281.0   333.195      5.5108   7.5945     0.0   22.4586
4311    4291.0   333.595      5.5112   7.5949     0.0   22.4518
4321    4301.0   333.995      5.5109   7.5945     0.0   22.4417
4331    4311.0   334.395      5.5112   7.5948     0.0   22.4433
4341    4321.0   334.795      5.5113   7.5950     0.0   22.4300
4351    4331.0   335.195      5.5114   7.5951     0.0   22.4303
4361    4341.0   335.595      5.5112   7.5949     0.0   22.4226
4371    4351.0   335.995      5.5112   7.5949     0.0   22.4075
4381    4361.0   336.395      5.5111   7.5948     0.0   22.4150
4391    4371.0   336.795      5.5113   7.5950     0.0   22.4064
4401    4381.0   337.195      5.5114   7.5950     0.0   22.4073
4411    4391.0   337.595      5.5110   7.5946     0.0   22.3983
4421    4401.0   337.995      5.5112   7.5949     0.0   22.3889
4431    4411.0   338.395      5.5114   7.5950     0.0   22.3883
4441    4421.0   338.795      5.5112   7.5949     0.0   22.3788
4451    4431.0   339.195      5.5113   7.5950     0.0   22.3663
4461    4441.0   339.595      5.5109   7.5946     0.0   22.3520
4471    4451.0   339.995      5.5107   7.5944     0.0   22.3646
4481    4461.0   340.395      5.5115   7.5952     0.0   22.3653
4491    4471.0   340.795      5.5110   7.5947     0.0   22.3257
4501    4481.0   341.195      5.5113   7.5949     0.0   22.3269
4511    4491.0   341.595      5.5113   7.5949     0.0   22.3349
4521    4501.0   341.995      5.5114   7.5951     0.0   22.3126
4531    4511.0   342.395      5.5111   7.5947     0.0   22.3110
4541    4521.0   342.795      5.5110   7.5947     0.0   22.3009
4551    4531.0   343.195      5.5112   7.5949     0.0   22.2958
4561    4541.0   343.595      5.5116   7.5953     0.0   22.3019
4571    4551.0   343.995      5.5112   7.5948     0.0   22.2884
4581    4561.0   344.395      5.5113   7.5950     0.0   22.2759
4591    4571.0   344.795      5.5114   7.5951     0.0   22.2821
4601    4581.0   345.195      5.5111   7.5948     0.0   22.2839
4611    4591.0   345.595      5.5113   7.5949     0.0   22.2698
4621    4601.0   345.995      5.5112   7.5948     0.0   22.2600
4631    4611.0   346.395      5.5112   7.5948     0.0   22.2662
4641    4621.0   346.795      5.5110   7.5946     0.0   22.2684
4651    4631.0   347.195      5.5109   7.5946     0.0   22.2686
4661    4641.0   347.595      5.5113   7.5950     0.0   22.2692
4671    4651.0   347.995      5.5108   7.5945     0.0   22.2576
4681    4661.0   348.395      5.5114   7.5951     0.0   22.2468
4691    4671.0   348.795      5.5111   7.5948     0.0   22.2252
4701    4681.0   349.195      5.5111   7.5948     0.0   22.2239
4711    4691.0   349.595      5.5112   7.5949     0.0   22.2205
4721    4701.0   349.995      5.5114   7.5950     0.0   22.2076
4731    4711.0   350.395      5.5116   7.5952     0.0   22.1975
4741    4721.0   350.795      5.5113   7.5950     0.0   22.2108
4751    4731.0   351.195      5.5111   7.5948     0.0   22.2027
4761    4741.0   351.595      5.5111   7.5948     0.0   22.1814
4771    4751.0   351.995      5.5112   7.5948     0.0   22.1699
4781    4761.0   352.395      5.5112   7.5949     0.0   22.1627
4791    4771.0   352.795      5.5112   7.5949     0.0   22.1663
4801    4781.0   353.195      5.5111   7.5947     0.0   22.1603
4811    4791.0   353.595      5.5116   7.5953     0.0   22.1484
4821    4801.0   353.995      5.5108   7.5945     0.0   22.1492
4831    4811.0   354.395      5.5112   7.5948     0.0   22.1341
4841    4821.0   354.795      5.5114   7.5950     0.0   22.1354
4851    4831.0   355.195      5.5113   7.5950     0.0   22.1364
4861    4841.0   355.595      5.5114   7.5951     0.0   22.1373
4871    4851.0   355.995      5.5112   7.5948     0.0   22.1372
4881    4861.0   356.395      5.5110   7.5946     0.0   22.1303
4891    4871.0   356.795      5.5112   7.5949     0.0   22.1316
4901    4881.0   357.195      5.5113   7.5950     0.0   22.1272
4911    4891.0   357.595      5.5115   7.5951     0.0   22.1224
4921    4901.0   357.995      5.5113   7.5950     0.0   22.1123
4931    4911.0   358.395      5.5112   7.5949     0.0   22.1042
4941    4921.0   358.795      5.5116   7.5953     0.0   22.1064
4951    4931.0   359.195      5.5112   7.5949     0.0   22.1072
4961    4941.0   359.595      5.5109   7.5946     0.0   22.0965
4971    4951.0   359.995      5.5112   7.5949     0.0   22.0910
4981    4961.0   360.395      5.5110   7.5947     0.0   22.0814
4991    4971.0   360.795      5.5111   7.5948     0.0   22.0829
5001    4981.0   361.195      5.5114   7.5950     0.0   22.0750
5011    4991.0   361.595      5.5108   7.5945     0.0   22.0740
5021    5001.0   361.995      5.5114   7.5951     0.0   22.0651
5031    5011.0   362.395      5.5113   7.5950     0.0   22.0685
5041    5021.0   362.795      5.5112   7.5949     0.0   22.0531
5051    5031.0   363.195      5.5111   7.5947     0.0   22.0516
5061    5041.0   363.595      5.5109   7.5946     0.0   22.0465
5071    5051.0   363.995      5.5110   7.5947     0.0   22.0466
5081    5061.0   364.395      5.5116   7.5952     0.0   22.0501
5091    5071.0   364.795      5.5109   7.5945     0.0   22.0413
5101    5081.0   365.195      5.5112   7.5949     0.0   22.0559
5111    5091.0   365.595      5.5110   7.5947     0.0   22.0433
5121    5101.0   365.995      5.5110   7.5947     0.0   22.0460
5131    5111.0   366.395      5.5113   7.5950     0.0   22.0507
5141    5121.0   366.795      5.5113   7.5950     0.0   22.0391
5151    5131.0   367.195      5.5109   7.5946     0.0   22.0312
5161    5141.0   367.595      5.5110   7.5947     0.0   22.0140
5171    5151.0   367.995      5.5113   7.5950     0.0   22.0172
5181    5161.0   368.395      5.5110   7.5947     0.0   22.0436
5191    5171.0   368.795      5.5114   7.5950     0.0   22.0365
5201    5181.0   369.195      5.5109   7.5946     0.0   22.0328
5211    5191.0   369.595      5.5114   7.5950     0.0   22.0226
5221    5201.0   369.995      5.5113   7.5950     0.0   22.0175
5231    5211.0   370.395      5.5110   7.5947     0.0   22.0118
5241    5221.0   370.795      5.5111   7.5947     0.0   22.0091
5251    5231.0   371.195      5.5115   7.5951     0.0   22.0009
5261    5241.0   371.595      5.5111   7.5948     0.0   22.0030
5271    5251.0   371.995      5.5112   7.5949     0.0   21.9850
5281    5261.0   372.395      5.5112   7.5949     0.0   21.9727
5291    5271.0   372.795      5.5113   7.5949     0.0   21.9755
5301    5281.0   373.195      5.5113   7.5950     0.0   21.9732
5311    5291.0   373.595      5.5109   7.5946     0.0   21.9617
5321    5301.0   373.995      5.5110   7.5946     0.0   21.9604
5331    5311.0   374.395      5.5113   7.5950     0.0   21.9616
5341    5321.0   374.795      5.5113   7.5949     0.0   21.9416
5351    5331.0   375.195      5.5112   7.5949     0.0   21.9563
5361    5341.0   375.595      5.5112   7.5949     0.0   21.9496
5371    5351.0   375.995      5.5108   7.5945     0.0   21.9746
5381    5361.0   376.395      5.5110   7.5947     0.0   21.9730
5391    5371.0   376.795      5.5113   7.5950     0.0   21.9715
5401    5381.0   377.195      5.5112   7.5949     0.0   21.9658
5411    5391.0   377.595      5.5111   7.5948     0.0   21.9741
5421    5401.0   377.995      5.5112   7.5948     0.0   21.9728
5431    5411.0   378.395      5.5110   7.5947     0.0   21.9277
5441    5421.0   378.795      5.5112   7.5948     0.0   21.9101
5451    5431.0   379.195      5.5112   7.5949     0.0   21.9060
5461    5441.0   379.595      5.5110   7.5947     0.0   21.8945
5471    5451.0   379.995      5.5111   7.5947     0.0   21.9044
5481    5461.0   380.395      5.5111   7.5948     0.0   21.8989
5491    5471.0   380.795      5.5115   7.5951     0.0   21.9038
5501    5481.0   381.195      5.5111   7.5948     0.0   21.8971
5511    5491.0   381.595      5.5110   7.5947     0.0   21.8870
5521    5501.0   381.995      5.5112   7.5948     0.0   21.8890
5531    5511.0   382.395      5.5115   7.5951     0.0   21.8887
5541    5521.0   382.795      5.5111   7.5948     0.0   21.8975
5551    5531.0   383.195      5.5112   7.5949     0.0   21.8955
5561    5541.0   383.595      5.5112   7.5949     0.0   21.9027
5571    5551.0   383.995      5.5111   7.5948     0.0   21.9139
5581    5561.0   384.395      5.5111   7.5947     0.0   21.9037
5591    5571.0   384.795      5.5112   7.5948     0.0   21.8937
5601    5581.0   385.195      5.5113   7.5950     0.0   21.9094
5611    5591.0   385.595      5.5111   7.5948     0.0   21.9101
5621    5601.0   385.995      5.5110   7.5946     0.0   21.9043
5631    5611.0   386.395      5.5111   7.5948     0.0   21.8977
5641    5621.0   386.795      5.5108   7.5945     0.0   21.8715
5651    5631.0   387.195      5.5113   7.5949     0.0   21.8927
5661    5641.0   387.595      5.5110   7.5947     0.0   21.8778
5671    5651.0   387.995      5.5111   7.5948     0.0   21.8761
5681    5661.0   388.395      5.5111   7.5947     0.0   21.8761
5691    5671.0   388.795      5.5111   7.5948     0.0   21.8712
5701    5681.0   389.195      5.5110   7.5947     0.0   21.8687
5711    5691.0   389.595      5.5113   7.5949     0.0   21.8602
5721    5701.0   389.995      5.5108   7.5945     0.0   21.8582
5731    5711.0   390.395      5.5111   7.5947     0.0   21.8620
5741    5721.0   390.795      5.5113   7.5949     0.0   21.8558
5751    5731.0   391.195      5.5113   7.5950     0.0   21.8463
5761    5741.0   391.595      5.5111   7.5948     0.0   21.8446
5771    5751.0   391.995      5.5116   7.5953     0.0   21.8456
5781    5761.0   392.395      5.5111   7.5948     0.0   21.8378
5791    5771.0   392.795      5.5113   7.5950     0.0   21.8507
5801    5781.0   393.195      5.5111   7.5948     0.0   21.8402
5811    5791.0   393.595      5.5111   7.5947     0.0   21.8422
5821    5801.0   393.995      5.5113   7.5950     0.0   21.8412
5831    5811.0   394.395      5.5113   7.5949     0.0   21.8366
5841    5821.0   394.795      5.5109   7.5946     0.0   21.8265
5851    5831.0   395.195      5.5113   7.5950     0.0   21.8286
5861    5841.0   395.595      5.5114   7.5950     0.0   21.8116
5871    5851.0   395.995      5.5109   7.5946     0.0   21.8010
5881    5861.0   396.395      5.5113   7.5950     0.0   21.8114
5891    5871.0   396.795      5.5111   7.5947     0.0   21.8105
5901    5881.0   397.195      5.5113   7.5950     0.0   21.8086
5911    5891.0   397.595      5.5108   7.5945     0.0   21.7990
5921    5901.0   397.995      5.5110   7.5947     0.0   21.7989
5931    5911.0   398.395      5.5110   7.5947     0.0   21.7991
5941    5921.0   398.795      5.5111   7.5947     0.0   21.7947
5951    5931.0   399.195      5.5112   7.5948     0.0   21.7980
5961    5941.0   399.595      5.5112   7.5949     0.0   21.7884
5971    5951.0   399.995      5.5111   7.5947     0.0   21.7927
5981    5961.0   400.395      5.5109   7.5945     0.0   21.7897
5991    5971.0   400.795      5.5110   7.5947     0.0   21.7836
6001    5981.0   401.195      5.5109   7.5946     0.0   21.7794
6011    5991.0   401.595      5.5108   7.5945     0.0   21.7849
6021    6001.0   401.995      5.5109   7.5945     0.0   21.7653
6031    6011.0   402.395      5.5112   7.5949     0.0   21.7783
6041    6021.0   402.795      5.5113   7.5950     0.0   21.7775
6051    6031.0   403.195      5.5111   7.5948     0.0   21.7653
6061    6041.0   403.595      5.5111   7.5948     0.0   21.7677
6071    6051.0   403.995      5.5113   7.5950     0.0   21.7612
6081    6061.0   404.395      5.5109   7.5945     0.0   21.7335
6091    6071.0   404.795      5.5111   7.5948     0.0   21.7426
6101    6081.0   405.195      5.5112   7.5949     0.0   21.7539
6111    6091.0   405.595      5.5112   7.5948     0.0   21.7481
6121    6101.0   405.995      5.5110   7.5947     0.0   21.7472
6131    6111.0   406.395      5.5112   7.5949     0.0   21.7413
6141    6121.0   406.795      5.5113   7.5950     0.0   21.7332
6151    6131.0   407.195      5.5115   7.5952     0.0   21.7352
6161    6141.0   407.595      5.5112   7.5949     0.0   21.7295
6171    6151.0   407.995      5.5112   7.5948     0.0   21.7371
6181    6161.0   408.395      5.5114   7.5951     0.0   21.7263
6191    6171.0   408.795      5.5109   7.5946     0.0   21.7166
6201    6181.0   409.195      5.5112   7.5948     0.0   21.7116
6211    6191.0   409.595      5.5114   7.5951     0.0   21.7085
6221    6201.0   409.995      5.5109   7.5946     0.0   21.6996
6231    6211.0   410.395      5.5113   7.5949     0.0   21.7031
6241    6221.0   410.795      5.5113   7.5950     0.0   21.7252
6251    6231.0   411.195      5.5112   7.5949     0.0   21.7181
6261    6241.0   411.595      5.5112   7.5949     0.0   21.6725
6271    6251.0   411.995      5.5109   7.5946     0.0   21.6772
6281    6261.0   412.395      5.5112   7.5949     0.0   21.6869
6291    6271.0   412.795      5.5113   7.5949     0.0   21.6962
6301    6281.0   413.195      5.5108   7.5945     0.0   21.6886
6311    6291.0   413.595      5.5113   7.5950     0.0   21.6813
6321    6301.0   413.995      5.5112   7.5949     0.0   21.6867
6331    6311.0   414.395      5.5112   7.5948     0.0   21.6916
6341    6321.0   414.795      5.5113   7.5950     0.0   21.6925
6351    6331.0   415.195      5.5109   7.5945     0.0   21.6923
6361    6341.0   415.595      5.5112   7.5948     0.0   21.6893
6371    6351.0   415.995      5.5112   7.5948     0.0   21.6815
6381    6361.0   416.395      5.5113   7.5949     0.0   21.6771
6391    6371.0   416.795      5.5114   7.5951     0.0   21.6765
6401    6381.0   417.195      5.5111   7.5948     0.0   21.6689
6411    6391.0   417.595      5.5114   7.5950     0.0   21.6540
6421    6401.0   417.995      5.5112   7.5948     0.0   21.6556
6431    6411.0   418.395      5.5111   7.5948     0.0   21.6630
6441    6421.0   418.795      5.5112   7.5949     0.0   21.6561
6451    6431.0   419.195      5.5111   7.5948     0.0   21.6548
6461    6441.0   419.595      5.5113   7.5949     0.0   21.6473
6471    6451.0   419.995      5.5109   7.5946     0.0   21.6449
6481    6461.0   420.395      5.5110   7.5947     0.0   21.6415
6491    6471.0   420.795      5.5114   7.5951     0.0   21.6411
6501    6481.0   421.195      5.5112   7.5948     0.0   21.6250
6511    6491.0   421.595      5.5118   7.5955     0.0   21.6238
6521    6501.0   421.995      5.5112   7.5948     0.0   21.6335
6531    6511.0   422.395      5.5110   7.5946     0.0   21.6392
6541    6521.0   422.795      5.5112   7.5949     0.0   21.6405
6551    6531.0   423.195      5.5109   7.5946     0.0   21.6211
6561    6541.0   423.595      5.5111   7.5947     0.0   21.6257
6571    6551.0   423.995      5.5112   7.5948     0.0   21.6279
6581    6561.0   424.395      5.5111   7.5948     0.0   21.6264
6591    6571.0   424.795      5.5109   7.5945     0.0   21.6182
6601    6581.0   425.195      5.5111   7.5948     0.0   21.6161
6611    6591.0   425.595      5.5109   7.5945     0.0   21.6237
6621    6601.0   425.995      5.5111   7.5948     0.0   21.6158
6631    6611.0   426.395      5.5109   7.5946     0.0   21.6188
6641    6621.0   426.795      5.5110   7.5947     0.0   21.6189
6651    6631.0   427.195      5.5107   7.5944     0.0   21.6090
6661    6641.0   427.595      5.5114   7.5951     0.0   21.6000
6671    6651.0   427.995      5.5109   7.5946     0.0   21.6110
6681    6661.0   428.395      5.5111   7.5948     0.0   21.6116
6691    6671.0   428.795      5.5110   7.5947     0.0   21.6015
6701    6681.0   429.195      5.5110   7.5946     0.0   21.6179
6711    6691.0   429.595      5.5109   7.5946     0.0   21.6244
6721    6701.0   429.995      5.5110   7.5947     0.0   21.6182
6731    6711.0   430.395      5.5109   7.5945     0.0   21.6026
6741    6721.0   430.795      5.5111   7.5948     0.0   21.5976
6751    6731.0   431.195      5.5110   7.5947     0.0   21.6073
6761    6741.0   431.595      5.5111   7.5948     0.0   21.6134
6771    6751.0   431.995      5.5115   7.5952     0.0   21.5993
6781    6761.0   432.395      5.5110   7.5947     0.0   21.5989
6791    6771.0   432.795      5.5111   7.5947     0.0   21.6065
6801    6781.0   433.195      5.5112   7.5949     0.0   21.6099
6811    6791.0   433.595      5.5113   7.5950     0.0   21.5969
6821    6801.0   433.995      5.5113   7.5949     0.0   21.5917
6831    6811.0   434.395      5.5111   7.5948     0.0   21.5889
6841    6821.0   434.795      5.5111   7.5948     0.0   21.5822
6851    6831.0   435.195      5.5110   7.5946     0.0   21.5701
6861    6841.0   435.595      5.5110   7.5946     0.0   21.5702
6871    6851.0   435.995      5.5111   7.5947     0.0   21.5815
6881    6861.0   436.395      5.5114   7.5950     0.0   21.5829
6891    6871.0   436.795      5.5108   7.5945     0.0   21.5685
6901    6881.0   437.195      5.5109   7.5945     0.0   21.5672
6911    6891.0   437.595      5.5113   7.5949     0.0   21.5708
6921    6901.0   437.995      5.5112   7.5949     0.0   21.5639
6931    6911.0   438.395      5.5111   7.5947     0.0   21.5479
6941    6921.0   438.795      5.5109   7.5946     0.0   21.5445
6951    6931.0   439.195      5.5110   7.5947     0.0   21.5493
6961    6941.0   439.595      5.5111   7.5948     0.0   21.5568
6971    6951.0   439.995      5.5110   7.5947     0.0   21.5464
6981    6961.0   440.395      5.5112   7.5949     0.0   21.5490
6991    6971.0   440.795      5.5112   7.5948     0.0   21.5461
7001    6981.0   441.195      5.5112   7.5949     0.0   21.5396
7011    6991.0   441.595      5.5113   7.5950     0.0   21.5378
7021    7001.0   441.995      5.5111   7.5948     0.0   21.5395
7031    7011.0   442.395      5.5112   7.5948     0.0   21.5454
7041    7021.0   442.795      5.5107   7.5944     0.0   21.5364
7051    7031.0   443.195      5.5109   7.5946     0.0   21.5361
7061    7041.0   443.595      5.5111   7.5948     0.0   21.5453
7071    7051.0   443.995      5.5113   7.5949     0.0   21.5349
7081    7061.0   444.395      5.5111   7.5947     0.0   21.5292
7091    7071.0   444.795      5.5111   7.5948     0.0   21.5280
7101    7081.0   445.195      5.5110   7.5947     0.0   21.5287
7111    7091.0   445.595      5.5111   7.5947     0.0   21.5296
7121    7101.0   445.995      5.5114   7.5950     0.0   21.5257
7131    7111.0   446.395      5.5112   7.5948     0.0   21.5235
7141    7121.0   446.795      5.5113   7.5949     0.0   21.5122
7151    7131.0   447.195      5.5114   7.5950     0.0   21.5201
7161    7141.0   447.595      5.5112   7.5949     0.0   21.5248
7171    7151.0   447.995      5.5112   7.5948     0.0   21.5165
7181    7161.0   448.395      5.5114   7.5951     0.0   21.5183
7191    7171.0   448.795      5.5110   7.5947     0.0   21.5049
7201    7181.0   449.195      5.5110   7.5947     0.0   21.5045
7211    7191.0   449.595      5.5113   7.5949     0.0   21.5071
7221    7201.0   449.995      5.5112   7.5949     0.0   21.4980
7231    7211.0   450.395      5.5111   7.5947     0.0   21.5055
7241    7221.0   450.795      5.5108   7.5945     0.0   21.5059
7251    7231.0   451.195      5.5111   7.5947     0.0   21.4868
7261    7241.0   451.595      5.5112   7.5949     0.0   21.5086
7271    7251.0   451.995      5.5110   7.5947     0.0   21.4743
7281    7261.0   452.395      5.5111   7.5948     0.0   21.4751
7291    7271.0   452.795      5.5110   7.5946     0.0   21.4728
7301    7281.0   453.195      5.5109   7.5946     0.0   21.4761
7311    7291.0   453.595      5.5110   7.5947     0.0   21.4706
7321    7301.0   453.995      5.5110   7.5947     0.0   21.4566
7331    7311.0   454.395      5.5109   7.5946     0.0   21.4640
7341    7321.0   454.795      5.5109   7.5946     0.0   21.4636
7351    7331.0   455.195      5.5109   7.5945     0.0   21.4577
7361    7341.0   455.595      5.5112   7.5949     0.0   21.4592
7371    7351.0   455.995      5.5111   7.5947     0.0   21.4473
7381    7361.0   456.395      5.5113   7.5950     0.0   21.4559
7391    7371.0   456.795      5.5112   7.5949     0.0   21.4447
7401    7381.0   457.195      5.5113   7.5950     0.0   21.4434
7411    7391.0   457.595      5.5112   7.5949     0.0   21.4455
7421    7401.0   457.995      5.5110   7.5947     0.0   21.4458
7431    7411.0   458.395      5.5113   7.5949     0.0   21.4423
7441    7421.0   458.795      5.5110   7.5947     0.0   21.4341
7451    7431.0   459.195      5.5108   7.5945     0.0   21.4336
7461    7441.0   459.595      5.5113   7.5950     0.0   21.4401
7471    7451.0   459.995      5.5112   7.5948     0.0   21.4317
7481    7461.0   460.395      5.5114   7.5950     0.0   21.4314
7491    7471.0   460.795      5.5109   7.5946     0.0   21.4215
7501    7481.0   461.195      5.5113   7.5950     0.0   21.4255
7511    7491.0   461.595      5.5111   7.5948     0.0   21.4259
7521    7501.0   461.995      5.5112   7.5949     0.0   21.4219
7531    7511.0   462.395      5.5113   7.5949     0.0   21.4189
7541    7521.0   462.795      5.5109   7.5946     0.0   21.4191
7551    7531.0   463.195      5.5111   7.5947     0.0   21.4185
7561    7541.0   463.595      5.5112   7.5949     0.0   21.4182
7571    7551.0   463.995      5.5112   7.5949     0.0   21.4117
7581    7561.0   464.395      5.5117   7.5953     0.0   21.4120
7591    7571.0   464.795      5.5110   7.5947     0.0   21.4012
7601    7581.0   465.195      5.5110   7.5947     0.0   21.4099
7611    7591.0   465.595      5.5111   7.5947     0.0   21.4120
7621    7601.0   465.995      5.5108   7.5944     0.0   21.3916
7631    7611.0   466.395      5.5113   7.5950     0.0   21.4044
7641    7621.0   466.795      5.5112   7.5949     0.0   21.3970
7651    7631.0   467.195      5.5109   7.5946     0.0   21.4047
7661    7641.0   467.595      5.5112   7.5948     0.0   21.4078
7671    7651.0   467.995      5.5112   7.5949     0.0   21.3876
7681    7661.0   468.395      5.5112   7.5948     0.0   21.3924
7691    7671.0   468.795      5.5108   7.5944     0.0   21.4046
7701    7681.0   469.195      5.5112   7.5949     0.0   21.3920
7711    7691.0   469.595      5.5112   7.5949     0.0   21.3897
7721    7701.0   469.995      5.5108   7.5945     0.0   21.3749
7731    7711.0   470.395      5.5109   7.5945     0.0   21.3842
7741    7721.0   470.795      5.5113   7.5950     0.0   21.3838
7758    7731.0   471.255      5.5198   7.6034     0.0   21.6260
7768    7741.0   471.655      5.5336   7.6173     0.0   22.0058
7778    7751.0   472.055      5.5469   7.6306     0.0   22.3485
7788    7761.0   472.455      5.5604   7.6441     0.0   22.6897
7798    7771.0   472.855      5.5735   7.6572     0.0   23.0183
7808    7781.0   473.255      5.5864   7.6701     0.0   23.3259
7818    7791.0   473.655      5.6000   7.6837     0.0   23.6499
7828    7801.0   474.055      5.6134   7.6971     0.0   23.9720
7838    7811.0   474.455      5.6268   7.7104     0.0   24.2718
7848    7821.0   474.855      5.6405   7.7242     0.0   24.5814
7858    7831.0   475.255      5.6537   7.7373     0.0   24.8640
7868    7841.0   475.655      5.6667   7.7503     0.0   25.1410
7878    7851.0   476.055      5.6800   7.7637     0.0   25.4233
7888    7861.0   476.455      5.6939   7.7776     0.0   25.7145
7898    7871.0   476.855      5.7067   7.7903     0.0   25.9574
7908    7881.0   477.255      5.7198   7.8035     0.0   26.2080
7918    7891.0   477.655      5.7336   7.8172     0.0   26.4610
7928    7901.0   478.055      5.7467   7.8304     0.0   26.6950
7938    7911.0   478.455      5.7601   7.8437     0.0   26.9457
7948    7921.0   478.855      5.7735   7.8572     0.0   27.1760
7958    7931.0   479.255      5.7872   7.8708     0.0   27.4058
7968    7941.0   479.655      5.8003   7.8840     0.0   27.6171
7978    7951.0   480.055      5.8137   7.8974     0.0   27.8354
7988    7961.0   480.455      5.8267   7.9103     0.0   28.0378
7998    7971.0   480.855      5.8397   7.9234     0.0   28.2459
8008    7981.0   481.255      5.8535   7.9372     0.0   28.4425
8018    7991.0   481.655      5.8665   7.9501     0.0   28.6230
8028    8001.0   482.055      5.8799   7.9636     0.0   28.8182
8038    8011.0   482.455      5.8934   7.9770     0.0   29.0171
8048    8021.0   482.855      5.9066   7.9902     0.0   29.2251
8058    8031.0   483.255      5.9198   8.0035     0.0   29.4177
8068    8041.0   483.655      5.9333   8.0170     0.0   29.5985
8078    8051.0   484.055      5.9467   8.0304     0.0   29.8193
8088    8061.0   484.455      5.9603   8.0439     0.0   30.0091
8098    8071.0   484.855      5.9733   8.0569     0.0   30.1918
8108    8081.0   485.255      5.9862   8.0699     0.0   30.3689
8118    8091.0   485.655      5.9996   8.0832     0.0   30.5395
8128    8101.0   486.055      6.0131   8.0968     0.0   30.7719
8138    8111.0   486.455      6.0263   8.1100     0.0   30.9526
8148    8121.0   486.855      6.0398   8.1234     0.0   31.1329
8158    8131.0   487.255      6.0528   8.1365     0.0   31.2874
8168    8141.0   487.655      6.0663   8.1499     0.0   31.4647
8178    8151.0   488.055      6.0800   8.1636     0.0   31.6224
8188    8161.0   488.455      6.0932   8.1768     0.0   31.7693
8198    8171.0   488.855      6.1064   8.1901     0.0   31.8775
8208    8181.0   489.255      6.1198   8.2034     0.0   32.0495
8218    8191.0   489.655      6.1333   8.2170     0.0   32.2161
8228    8201.0   490.055      6.1463   8.2299     0.0   32.3901
8238    8211.0   490.455      6.1595   8.2431     0.0   32.5666
8248    8221.0   490.855      6.1734   8.2571     0.0   32.7491
8258    8231.0   491.255      6.1858   8.2695     0.0   32.9100
8268    8241.0   491.655      6.1996   8.2832     0.0   33.0829
8278    8251.0   492.055      6.2135   8.2972     0.0   33.2789
8288    8261.0   492.455      6.2266   8.3103     0.0   33.4530
8298    8271.0   492.855      6.2395   8.3232     0.0   33.6121
8308    8281.0   493.255      6.2529   8.3366     0.0   33.7670
8318    8291.0   493.655      6.2665   8.3502     0.0   33.9620
8328    8301.0   494.055      6.2803   8.3639     0.0   34.1466
8338    8311.0   494.455      6.2931   8.3768     0.0   34.3106
8348    8321.0   494.855      6.3066   8.3903     0.0   34.4745
8358    8331.0   495.255      6.3194   8.4030     0.0   34.6280
8368    8341.0   495.655      6.3330   8.4167     0.0   34.8076
8378    8351.0   496.055      6.3467   8.4303     0.0   34.9817
8394    8361.0   496.450      6.3376   8.4212     0.0   34.5785
8404    8371.0   496.850      6.3376   8.4213     0.0   34.4834
8414    8381.0   497.250      6.3376   8.4213     0.0   34.4032
8424    8391.0   497.650      6.3379   8.4216     0.0   34.3510
8434    8401.0   498.050      6.3378   8.4214     0.0   34.2782
8444    8411.0   498.450      6.3377   8.4214     0.0   34.2161
8454    8421.0   498.850      6.3374   8.4211     0.0   34.1626
8464    8431.0   499.250      6.3376   8.4213     0.0   34.1034
8474    8441.0   499.650      6.3379   8.4216     0.0   34.0638
8484    8451.0   500.050      6.3375   8.4212     0.0   33.9993
8494    8461.0   500.450      6.3376   8.4212     0.0   33.9680
8504    8471.0   500.850      6.3375   8.4212     0.0   33.9354
8514    8481.0   501.250      6.3379   8.4215     0.0   33.8813
8524    8491.0   501.650      6.3376   8.4213     0.0   33.8446
8534    8501.0   502.050      6.3376   8.4213     0.0   33.8143
8544    8511.0   502.450      6.3378   8.4215     0.0   33.7903
8554    8521.0   502.850      6.3376   8.4213     0.0   33.7590
8564    8531.0   503.250      6.3378   8.4215     0.0   33.7347
8574    8541.0   503.650      6.3377   8.4214     0.0   33.6984
8584    8551.0   504.050      6.3380   8.4217     0.0   33.6605
8594    8561.0   504.450      6.3380   8.4217     0.0   33.6350
8604    8571.0   504.850      6.3381   8.4217     0.0   33.6060
8614    8581.0   505.250      6.3379   8.4216     0.0   33.5794
8624    8591.0   505.650      6.3375   8.4212     0.0   33.5583
8634    8601.0   506.050      6.3383   8.4220     0.0   33.5325
8644    8611.0   506.450      6.3379   8.4215     0.0   33.5226
8654    8621.0   506.850      6.3375   8.4212     0.0   33.4937
8664    8631.0   507.250      6.3380   8.4217     0.0   33.4779
8675    8641.0   507.650      6.3376   8.4212     0.0   33.4522
8685    8651.0   508.050      6.3379   8.4216     0.0   33.4293
8695    8661.0   508.450      6.3378   8.4215     0.0   33.4039
8705    8671.0   508.850      6.3380   8.4217     0.0   33.3851
8715    8681.0   509.250      6.3379   8.4216     0.0   33.3675
8725    8691.0   509.650      6.3380   8.4217     0.0   33.3421
8735    8701.0   510.050      6.3377   8.4214     0.0   33.3147
8745    8711.0   510.450      6.3380   8.4216     0.0   33.2972
8755    8721.0   510.850      6.3375   8.4212     0.0   33.2714
8765    8731.0   511.250      6.3377   8.4213     0.0   33.2613
8775    8741.0   511.650      6.3376   8.4213     0.0   33.2356
8785    8751.0   512.050      6.3377   8.4214     0.0   33.2088
8795    8761.0   512.450      6.3378   8.4215     0.0   33.1941
8805    8771.0   512.850      6.3377   8.4213     0.0   33.1826
8815    8781.0   513.250      6.3378   8.4214     0.0   33.1731
8825    8791.0   513.650      6.3381   8.4218     0.0   33.1527
8835    8801.0   514.050      6.3376   8.4212     0.0   33.1338
8845    8811.0   514.450      6.3379   8.4216     0.0   33.1222
8855    8821.0   514.850      6.3380   8.4217     0.0   33.1168
8865    8831.0   515.250      6.3378   8.4215     0.0   33.1009
8875    8841.0   515.650      6.3378   8.4214     0.0   33.0926
8885    8851.0   516.050      6.3382   8.4218     0.0   33.0664
8895    8861.0   516.450      6.3381   8.4217     0.0   33.0539
8905    8871.0   516.850      6.3378   8.4215     0.0   33.0382
8915    8881.0   517.250      6.3379   8.4216     0.0   33.0259
8925    8891.0   517.650      6.3379   8.4215     0.0   33.0121
8935    8901.0   518.050      6.3381   8.4218     0.0   32.9896
8945    8911.0   518.450      6.3379   8.4215     0.0   32.9757
8955    8921.0   518.850      6.3378   8.4214     0.0   32.9634
8965    8931.0   519.250      6.3383   8.4219     0.0   32.9520
8975    8941.0   519.650      6.3382   8.4219     0.0   32.9366
8985    8951.0   520.050      6.3379   8.4216     0.0   32.9445
8995    8961.0   520.450      6.3378   8.4215     0.0   32.9263
9005    8971.0   520.850      6.3378   8.4215     0.0   32.9121
9015    8981.0   521.250      6.3380   8.4217     0.0   32.8942
9025    8991.0   521.650      6.3377   8.4213     0.0   32.8755
9035    9001.0   522.050      6.3381   8.4218     0.0   32.8759
9045    9011.0   522.450      6.3381   8.4218     0.0   32.8539
9055    9021.0   522.850      6.3377   8.4213     0.0   32.8329
9065    9031.0   523.250      6.3382   8.4218     0.0   32.8391
9075    9041.0   523.650      6.3381   8.4217     0.0   32.8299
9085    9051.0   524.050      6.3381   8.4218     0.0   32.8147
9095    9061.0   524.450      6.3378   8.4215     0.0   32.8026
9105    9071.0   524.850      6.3377   8.4214     0.0   32.7770
9115    9081.0   525.250      6.3378   8.4214     0.0   32.7765
9125    9091.0   525.650      6.3382   8.4219     0.0   32.7643
9135    9101.0   526.050      6.3382   8.4218     0.0   32.7585
9145    9111.0   526.450      6.3378   8.4215     0.0   32.7262
9155    9121.0   526.850      6.3375   8.4212     0.0   32.7086
9165    9131.0   527.250      6.3380   8.4216     0.0   32.6986
9175    9141.0   527.650      6.3381   8.4217     0.0   32.6915
9185    9151.0   528.050      6.3381   8.4218     0.0   32.6760
9195    9161.0   528.450      6.3378   8.4215     0.0   32.6651
9205    9171.0   528.850      6.3382   8.4219     0.0   32.6586
9215    9181.0   529.250      6.3380   8.4217     0.0   32.6491
9225    9191.0   529.650      6.3384   8.4221     0.0   32.6469
9235    9201.0   530.050      6.3377   8.4214     0.0   32.6388
9245    9211.0   530.450      6.3375   8.4212     0.0   32.6213
9255    9221.0   530.850      6.3376   8.4212     0.0   32.6159
9265    9231.0   531.250      6.3380   8.4217     0.0   32.5998
9275    9241.0   531.650      6.3378   8.4215     0.0   32.6112
9285    9251.0   532.050      6.3387   8.4223     0.0   32.6076
9295    9261.0   532.450      6.3378   8.4214     0.0   32.5824
9305    9271.0   532.850      6.3379   8.4215     0.0   32.5855
9315    9281.0   533.250      6.3383   8.4219     0.0   32.5870
9325    9291.0   533.650      6.3379   8.4216     0.0   32.5643
9335    9301.0   534.050      6.3380   8.4217     0.0   32.5479
9345    9311.0   534.450      6.3377   8.4214     0.0   32.5242
9355    9321.0   534.850      6.3379   8.4216     0.0   32.5196
9365    9331.0   535.250      6.3379   8.4216     0.0   32.5248
9375    9341.0   535.650      6.3383   8.4220     0.0   32.5114
9385    9351.0   536.050      6.3379   8.4216     0.0   32.5041
9395    9361.0   536.450      6.3378   8.4215     0.0   32.4951
9405    9371.0   536.850      6.3380   8.4216     0.0   32.4854
9415    9381.0   537.250      6.3378   8.4215     0.0   32.4786
9425    9391.0   537.650      6.3383   8.4219     0.0   32.4654
9435    9401.0   538.050      6.3378   8.4214     0.0   32.4473
9445    9411.0   538.450      6.3378   8.4215     0.0   32.4455
9455    9421.0   538.850      6.3380   8.4216     0.0   32.4409
9465    9431.0   539.250      6.3381   8.4217     0.0   32.4394
9475    9441.0   539.650      6.3378   8.4215     0.0   32.4107
9485    9451.0   540.050      6.3382   8.4218     0.0   32.4074
9495    9461.0   540.450      6.3380   8.4216     0.0   32.3898
9505    9471.0   540.850      6.3377   8.4214     0.0   32.3897
9515    9481.0   541.250      6.3383   8.4219     0.0   32.4091
9525    9491.0   541.650      6.3378   8.4214     0.0   32.3968
9535    9501.0   542.050      6.3382   8.4218     0.0   32.3927
9545    9511.0   542.450      6.3381   8.4218     0.0   32.3745
9555    9521.0   542.850      6.3383   8.4220     0.0   32.3723
9565    9531.0   543.250      6.3379   8.4216     0.0   32.3670
9575    9541.0   543.650      6.3382   8.4218     0.0   32.3590
9585    9551.0   544.050      6.3379   8.4216     0.0   32.3484
9595    9561.0   544.450      6.3379   8.4215     0.0   32.3411
9605    9571.0   544.850      6.3377   8.4214     0.0   32.3372
9615    9581.0   545.250      6.3378   8.4215     0.0   32.3302
9625    9591.0   545.650      6.3380   8.4217     0.0   32.3147
9635    9601.0   546.050      6.3383   8.4220     0.0   32.3077
9645    9611.0   546.450      6.3383   8.4219     0.0   32.2918
9655    9621.0   546.850      6.3378   8.4215     0.0   32.2836
9665    9631.0   547.250      6.3378   8.4215     0.0   32.2766
9675    9641.0   547.650      6.3378   8.4215     0.0   32.2576
9685    9651.0   548.050      6.3376   8.4213     0.0   32.2598
9695    9661.0   548.450      6.3382   8.4219     0.0   32.2484
9705    9671.0   548.850      6.3381   8.4218     0.0   32.2358
9715    9681.0   549.250      6.3381   8.4218     0.0   32.2320
9725    9691.0   549.650      6.3377   8.4213     0.0   32.2148
9735    9701.0   550.050      6.3379   8.4216     0.0   32.2260
9745    9711.0   550.450      6.3377   8.4213     0.0   32.2100
9755    9721.0   550.850      6.3382   8.4219     0.0   32.2030
9765    9731.0   551.250      6.3380   8.4217     0.0   32.1969
9775    9741.0   551.650      6.3377   8.4213     0.0   32.1930
9785    9751.0   552.050      6.3378   8.4214     0.0   32.1996
9795    9761.0   552.450      6.3381   8.4218     0.0   32.1973
9805    9771.0   552.850      6.3380   8.4217     0.0   32.1892
9815    9781.0   553.250      6.3379   8.4215     0.0   32.1756
9825    9791.0   553.650      6.3379   8.4216     0.0   32.1686
9835    9801.0   554.050      6.3377   8.4214     0.0   32.1590
9845    9811.0   554.450      6.3383   8.4219     0.0   32.1610
9855    9821.0   554.850      6.3381   8.4218     0.0   32.1551
9865    9831.0   555.250      6.3379   8.4215     0.0   32.1525
9875    9841.0   555.650      6.3378   8.4215     0.0   32.1434
9885    9851.0   556.050      6.3380   8.4216     0.0   32.1409
9895    9861.0   556.450      6.3380   8.4217     0.0   32.1332
9905    9871.0   556.850      6.3383   8.4219     0.0   32.1319
9915    9881.0   557.250      6.3378   8.4215     0.0   32.1148
9925    9891.0   557.650      6.3380   8.4216     0.0   32.1112
9935    9901.0   558.050      6.3380   8.4216     0.0   32.1055
9945    9911.0   558.450      6.3381   8.4217     0.0   32.1054
9955    9921.0   558.850      6.3384   8.4220     0.0   32.1065
9965    9931.0   559.250      6.3380   8.4217     0.0   32.0919
9975    9941.0   559.650      6.3383   8.4219     0.0   32.0856
9985    9951.0   560.050      6.3380   8.4216     0.0   32.0742
9995    9961.0   560.450      6.3380   8.4217     0.0   32.0696
10005   9971.0   560.850      6.3382   8.4219     0.0   32.0851
10015   9981.0   561.250      6.3381   8.4217     0.0   32.0662
10025   9991.0   561.650      6.3383   8.4219     0.0   32.0445
10035  10001.0   562.050      6.3381   8.4218     0.0   32.0550
10045  10011.0   562.450      6.3380   8.4217     0.0   32.0605
10055  10021.0   562.850      6.3383   8.4219     0.0   32.0534
10065  10031.0   563.250      6.3377   8.4214     0.0   32.0468
10075  10041.0   563.650      6.3380   8.4217     0.0   32.0434
10085  10051.0   564.050      6.3379   8.4216     0.0   32.0382
10095  10061.0   564.450      6.3381   8.4218     0.0   32.0267
10105  10071.0   564.850      6.3381   8.4217     0.0   32.0166
10115  10081.0   565.250      6.3378   8.4215     0.0   32.0108
10125  10091.0   565.650      6.3378   8.4215     0.0   32.0038
10135  10101.0   566.050      6.3378   8.4215     0.0   32.0036
10145  10111.0   566.450      6.3381   8.4218     0.0   32.0149
10155  10121.0   566.850      6.3380   8.4216     0.0   31.9947
10165  10131.0   567.250      6.3378   8.4214     0.0   31.9966
10175  10141.0   567.650      6.3377   8.4213     0.0   31.9806
10185  10151.0   568.050      6.3381   8.4217     0.0   31.9672
10195  10161.0   568.450      6.3382   8.4218     0.0   31.9671
10205  10171.0   568.850      6.3380   8.4217     0.0   31.9891
10215  10181.0   569.250      6.3377   8.4214     0.0   31.9868
10225  10191.0   569.650      6.3381   8.4218     0.0   31.9939
10235  10201.0   570.050      6.3377   8.4213     0.0   31.9892
10245  10211.0   570.450      6.3381   8.4218     0.0   31.9855
10255  10221.0   570.850      6.3375   8.4212     0.0   31.9692
10265  10231.0   571.250      6.3379   8.4215     0.0   31.9640
10275  10241.0   571.650      6.3379   8.4216     0.0   31.9660
10285  10251.0   572.050      6.3378   8.4215     0.0   31.9578
10295  10261.0   572.450      6.3378   8.4215     0.0   31.9473
10305  10271.0   572.850      6.3381   8.4217     0.0   31.9331
10315  10281.0   573.250      6.3380   8.4216     0.0   31.9179
10325  10291.0   573.650      6.3380   8.4216     0.0   31.9248
10335  10301.0   574.050      6.3384   8.4221     0.0   31.9282
10345  10311.0   574.450      6.3376   8.4213     0.0   31.9189
10355  10321.0   574.850      6.3380   8.4216     0.0   31.9191
10365  10331.0   575.250      6.3380   8.4217     0.0   31.9187
10375  10341.0   575.650      6.3381   8.4218     0.0   31.8952
10385  10351.0   576.050      6.3380   8.4217     0.0   31.8928
10395  10361.0   576.450      6.3375   8.4212     0.0   31.8964
10405  10371.0   576.850      6.3378   8.4215     0.0   31.8989
10415  10381.0   577.250      6.3379   8.4216     0.0   31.8914
10425  10391.0   577.650      6.3380   8.4217     0.0   31.8817
10435  10401.0   578.050      6.3383   8.4220     0.0   31.8868
10445  10411.0   578.450      6.3379   8.4215     0.0   31.8790
10455  10421.0   578.850      6.3379   8.4216     0.0   31.8709
10465  10431.0   579.250      6.3379   8.4216     0.0   31.8763
10475  10441.0   579.650      6.3377   8.4214     0.0   31.8675
10485  10451.0   580.050      6.3378   8.4214     0.0   31.8720
10495  10461.0   580.450      6.3382   8.4219     0.0   31.8651
10505  10471.0   580.850      6.3381   8.4218     0.0   31.8521
10515  10481.0   581.250      6.3378   8.4215     0.0   31.8512
10525  10491.0   581.650      6.3379   8.4216     0.0   31.8511
10535  10501.0   582.050      6.3381   8.4218     0.0   31.8387
10545  10511.0   582.450      6.3377   8.4213     0.0   31.8319
10555  10521.0   582.850      6.3380   8.4217     0.0   31.8249
10565  10531.0   583.250      6.3383   8.4219     0.0   31.8247
10575  10541.0   583.650      6.3377   8.4213     0.0   31.8149
10585  10551.0   584.050      6.3376   8.4213     0.0   31.8106
10595  10561.0   584.450      6.3380   8.4216     0.0   31.7938
10605  10571.0   584.850      6.3379   8.4215     0.0   31.7800
10615  10581.0   585.250      6.3378   8.4215     0.0   31.7640
10625  10591.0   585.650      6.3380   8.4217     0.0   31.7781
10635  10601.0   586.050      6.3379   8.4216     0.0   31.7735
10645  10611.0   586.450      6.3378   8.4215     0.0   31.7569
10655  10621.0   586.850      6.3378   8.4214     0.0   31.7670
10665  10631.0   587.250      6.3379   8.4215     0.0   31.7791
10675  10641.0   587.650      6.3378   8.4215     0.0   31.7735
10685  10651.0   588.050      6.3381   8.4217     0.0   31.7802
10695  10661.0   588.450      6.3376   8.4212     0.0   31.7850
10705  10671.0   588.850      6.3378   8.4215     0.0   31.7817
10715  10681.0   589.250      6.3377   8.4214     0.0   31.7750
10725  10691.0   589.650      6.3380   8.4217     0.0   31.7676
10735  10701.0   590.050      6.3379   8.4216     0.0   31.7540
10745  10711.0   590.450      6.3382   8.4219     0.0   31.7532
10755  10721.0   590.850      6.3381   8.4218     0.0   31.7580
10765  10731.0   591.250      6.3378   8.4215     0.0   31.7335
10775  10741.0   591.650      6.3376   8.4212     0.0   31.7155
10785  10751.0   592.050      6.3380   8.4216     0.0   31.7196
10795  10761.0   592.450      6.3379   8.4215     0.0   31.7551
10805  10771.0   592.850      6.3378   8.4215     0.0   31.7486
10815  10781.0   593.250      6.3382   8.4218     0.0   31.7451
10825  10791.0   593.650      6.3383   8.4220     0.0   31.7346
10835  10801.0   594.050      6.3379   8.4216     0.0   31.7294
10845  10811.0   594.450      6.3379   8.4215     0.0   31.7225
10855  10821.0   594.850      6.3380   8.4217     0.0   31.7311
10865  10831.0   595.250      6.3378   8.4215     0.0   31.7382
10875  10841.0   595.650      6.3380   8.4217     0.0   31.7258
10885  10851.0   596.050      6.3381   8.4217     0.0   31.7001
10895  10861.0   596.450      6.3378   8.4214     0.0   31.6661
10905  10871.0   596.850      6.3376   8.4213     0.0   31.6512
10915  10881.0   597.250      6.3378   8.4215     0.0   31.6570
10925  10891.0   597.650      6.3379   8.4216     0.0   31.6617
10935  10901.0   598.050      6.3383   8.4220     0.0   31.6634
10945  10911.0   598.450      6.3380   8.4217     0.0   31.6512
10955  10921.0   598.850      6.3378   8.4214     0.0   31.6358
10965  10931.0   599.250      6.3380   8.4216     0.0   31.6400
10975  10941.0   599.650      6.3378   8.4215     0.0   31.6305
10985  10951.0   600.050      6.3381   8.4218     0.0   31.6204
10995  10961.0   600.450      6.3378   8.4214     0.0   31.6110
11005  10971.0   600.850      6.3379   8.4216     0.0   31.6163
11015  10981.0   601.250      6.3379   8.4215     0.0   31.6007
11025  10991.0   601.650      6.3379   8.4216     0.0   31.6134
11035  11001.0   602.050      6.3381   8.4218     0.0   31.6222
11045  11011.0   602.450      6.3382   8.4218     0.0   31.6109
11055  11021.0   602.850      6.3381   8.4218     0.0   31.5826
11065  11031.0   603.250      6.3382   8.4218     0.0   31.5811
11075  11041.0   603.650      6.3379   8.4216     0.0   31.5814
11085  11051.0   604.050      6.3378   8.4215     0.0   31.5821
11095  11061.0   604.450      6.3377   8.4214     0.0   31.5732
11105  11071.0   604.850      6.3381   8.4217     0.0   31.5772
11115  11081.0   605.250      6.3380   8.4217     0.0   31.5702
11125  11091.0   605.650      6.3381   8.4218     0.0   31.5804
11135  11101.0   606.050      6.3379   8.4216     0.0   31.5465
11145  11111.0   606.450      6.3377   8.4213     0.0   31.5505
11155  11121.0   606.850      6.3379   8.4215     0.0   31.5509
11165  11131.0   607.250      6.3376   8.4213     0.0   31.5515
11175  11141.0   607.650      6.3381   8.4218     0.0   31.5483
11185  11151.0   608.050      6.3382   8.4219     0.0   31.5544
11195  11161.0   608.450      6.3381   8.4218     0.0   31.5399
11205  11171.0   608.850      6.3381   8.4218     0.0   31.5051
11215  11181.0   609.250      6.3378   8.4215     0.0   31.5217
11225  11191.0   609.650      6.3379   8.4216     0.0   31.5298
11235  11201.0   610.050      6.3379   8.4215     0.0   31.5317
11245  11211.0   610.450      6.3380   8.4217     0.0   31.5212
11255  11221.0   610.850      6.3380   8.4217     0.0   31.5298
11265  11231.0   611.250      6.3380   8.4217     0.0   31.5045
11275  11241.0   611.650      6.3378   8.4215     0.0   31.4740
11285  11251.0   612.050      6.3377   8.4213     0.0   31.5075
11295  11261.0   612.450      6.3381   8.4217     0.0   31.5293
11305  11271.0   612.850      6.3380   8.4216     0.0   31.5397
11315  11281.0   613.250      6.3379   8.4216     0.0   31.5348
11325  11291.0   613.650      6.3380   8.4217     0.0   31.5288
11335  11301.0   614.050      6.3379   8.4215     0.0   31.5168
11345  11311.0   614.450      6.3377   8.4214     0.0   31.5238
11355  11321.0   614.850      6.3380   8.4217     0.0   31.5094
11365  11331.0   615.250      6.3379   8.4216     0.0   31.5072
11375  11341.0   615.650      6.3380   8.4217     0.0   31.5059
11385  11351.0   616.050      6.3378   8.4215     0.0   31.5107
11395  11361.0   616.450      6.3377   8.4213     0.0   31.5151
11405  11371.0   616.850      6.3381   8.4218     0.0   31.5079
11415  11381.0   617.250      6.3381   8.4218     0.0   31.5073
11425  11391.0   617.650      6.3377   8.4214     0.0   31.4894
11435  11401.0   618.050      6.3376   8.4212     0.0   31.4931
11445  11411.0   618.450      6.3378   8.4214     0.0   31.4773
11455  11421.0   618.850      6.3378   8.4215     0.0   31.4809
11465  11431.0   619.250      6.3377   8.4214     0.0   31.4831
11475  11441.0   619.650      6.3381   8.4218     0.0   31.4808
11485  11451.0   620.050      6.3378   8.4214     0.0   31.4865
11495  11461.0   620.450      6.3386   8.4222     0.0   31.4914
11505  11471.0   620.850      6.3377   8.4213     0.0   31.4824
11515  11481.0   621.250      6.3383   8.4220     0.0   31.5002
11525  11491.0   621.650      6.3380   8.4217     0.0   31.4885
11535  11501.0   622.050      6.3381   8.4217     0.0   31.4843
11545  11511.0   622.450      6.3380   8.4216     0.0   31.4852
11555  11521.0   622.850      6.3383   8.4220     0.0   31.4818
11565  11531.0   623.250      6.3384   8.4220     0.0   31.4717
11575  11541.0   623.650      6.3381   8.4217     0.0   31.4698
11585  11551.0   624.050      6.3378   8.4215     0.0   31.4559
11595  11561.0   624.450      6.3376   8.4212     0.0   31.4858
11605  11571.0   624.850      6.3379   8.4215     0.0   31.4827
11615  11581.0   625.250      6.3379   8.4216     0.0   31.4703
11625  11591.0   625.650      6.3380   8.4217     0.0   31.4740
11635  11601.0   626.050      6.3377   8.4213     0.0   31.4683
11645  11611.0   626.450      6.3376   8.4213     0.0   31.4654
11655  11621.0   626.850      6.3380   8.4217     0.0   31.4673
11665  11631.0   627.250      6.3378   8.4214     0.0   31.3974
11675  11641.0   627.650      6.3375   8.4211     0.0   31.3995
11685  11651.0   628.050      6.3380   8.4217     0.0   31.3982
11695  11661.0   628.450      6.3383   8.4220     0.0   31.3803
11705  11671.0   628.850      6.3380   8.4216     0.0   31.3791
11715  11681.0   629.250      6.3378   8.4215     0.0   31.3849
11725  11691.0   629.650      6.3379   8.4215     0.0   31.3925
11735  11701.0   630.050      6.3381   8.4217     0.0   31.3900
11745  11711.0   630.450      6.3381   8.4217     0.0   31.3716
11755  11721.0   630.850      6.3381   8.4217     0.0   31.3763
11765  11731.0   631.250      6.3383   8.4219     0.0   31.3607
11775  11741.0   631.650      6.3378   8.4214     0.0   31.3929
11785  11751.0   632.050      6.3381   8.4217     0.0   31.3967
11795  11761.0   632.450      6.3375   8.4212     0.0   31.3705
11805  11771.0   632.850      6.3383   8.4219     0.0   31.3809
11815  11781.0   633.250      6.3381   8.4217     0.0   31.3491
11825  11791.0   633.650      6.3376   8.4213     0.0   31.3454
11835  11801.0   634.050      6.3378   8.4215     0.0   31.3446
11845  11811.0   634.450      6.3378   8.4215     0.0   31.3481
11855  11821.0   634.850      6.3379   8.4216     0.0   31.3483
11865  11831.0   635.250      6.3381   8.4217     0.0   31.3516
11875  11841.0   635.650      6.3380   8.4216     0.0   31.3436
11885  11851.0   636.050      6.3377   8.4213     0.0   31.2910
11895  11861.0   636.450      6.3381   8.4218     0.0   31.2962
11905  11871.0   636.850      6.3380   8.4216     0.0   31.3044
11915  11881.0   637.250      6.3380   8.4216     0.0   31.2784
11925  11891.0   637.650      6.3384   8.4220     0.0   31.2732
11935  11901.0   638.050      6.3378   8.4214     0.0   31.2714
11945  11911.0   638.450      6.3377   8.4214     0.0   31.2768
11955  11921.0   638.850      6.3381   8.4218     0.0   31.2675
11965  11931.0   639.250      6.3381   8.4218     0.0   31.2820
11975  11941.0   639.650      6.3381   8.4217     0.0   31.2724
11985  11951.0   640.050      6.3376   8.4212     0.0   31.2770
11995  11961.0   640.450      6.3387   8.4224     0.0   31.2723
12005  11971.0   640.850      6.3382   8.4219     0.0   31.2824
12015  11981.0   641.250      6.3380   8.4217     0.0   31.2668
12025  11991.0   641.650      6.3378   8.4215     0.0   31.2531
12035  12001.0   642.050      6.3381   8.4218     0.0   31.2654
12045  12011.0   642.450      6.3379   8.4216     0.0   31.2612
12055  12021.0   642.850      6.3379   8.4216     0.0   31.2587
12065  12031.0   643.250      6.3378   8.4214     0.0   31.2489
12075  12041.0   643.650      6.3381   8.4218     0.0   31.2355
12085  12051.0   644.050      6.3385   8.4222     0.0   31.2359
12095  12061.0   644.450      6.3383   8.4219     0.0   31.2370
12105  12071.0   644.850      6.3383   8.4220     0.0   31.2358
12115  12081.0   645.250      6.3375   8.4212     0.0   31.2237
12125  12091.0   645.650      6.3380   8.4217     0.0   31.2190
12135  12101.0   646.050      6.3381   8.4217     0.0   31.2234
12145  12111.0   646.450      6.3379   8.4215     0.0   31.2231
12155  12121.0   646.850      6.3378   8.4215     0.0   31.2221
12165  12131.0   647.250      6.3379   8.4216     0.0   31.2161
12175  12141.0   647.650      6.3381   8.4217     0.0   31.2156
12185  12151.0   648.050      6.3380   8.4217     0.0   31.2109
12195  12161.0   648.450      6.3377   8.4214     0.0   31.2038
12205  12171.0   648.850      6.3382   8.4219     0.0   31.2049
12215  12181.0   649.250      6.3383   8.4220     0.0   31.1999
12225  12191.0   649.650      6.3380   8.4217     0.0   31.2049
12235  12201.0   650.050      6.3378   8.4215     0.0   31.1951
12245  12211.0   650.450      6.3378   8.4215     0.0   31.1987
12255  12221.0   650.850      6.3376   8.4213     0.0   31.1864
12265  12231.0   651.250      6.3381   8.4218     0.0   31.1915
12275  12241.0   651.650      6.3383   8.4219     0.0   31.1962
12285  12251.0   652.050      6.3378   8.4215     0.0   31.1907
12295  12261.0   652.450      6.3381   8.4218     0.0   31.1812
12305  12271.0   652.850      6.3380   8.4217     0.0   31.1825
12315  12281.0   653.250      6.3381   8.4217     0.0   31.1885
12325  12291.0   653.650      6.3380   8.4217     0.0   31.1697
12335  12301.0   654.050      6.3380   8.4217     0.0   31.1724
12345  12311.0   654.450      6.3382   8.4218     0.0   31.1760
12355  12321.0   654.850      6.3381   8.4218     0.0   31.1695
12372  12331.0   655.295      6.3446   8.4282     0.0   31.3556
12382  12341.0   655.695      6.3582   8.4418     0.0   31.7737
12392  12351.0   656.095      6.3705   8.4542     0.0   32.1287
12402  12361.0   656.495      6.3839   8.4676     0.0   32.4917
12412  12371.0   656.895      6.3972   8.4809     0.0   32.8538
12422  12381.0   657.295      6.4111   8.4947     0.0   33.2085
12432  12391.0   657.695      6.4245   8.5082     0.0   33.5494
12442  12401.0   658.095      6.4375   8.5211     0.0   33.8736
12452  12411.0   658.495      6.4505   8.5342     0.0   34.1849
12462  12421.0   658.895      6.4640   8.5477     0.0   34.4961
12472  12431.0   659.295      6.4770   8.5607     0.0   34.7908
12482  12441.0   659.695      6.4907   8.5744     0.0   35.1038
12492  12451.0   660.095      6.5042   8.5879     0.0   35.3822
12502  12461.0   660.495      6.5171   8.6008     0.0   35.6675
12512  12471.0   660.895      6.5308   8.6144     0.0   35.9474
12522  12481.0   661.295      6.5439   8.6276     0.0   36.1976
12532  12491.0   661.695      6.5569   8.6406     0.0   36.4621
12542  12501.0   662.095      6.5703   8.6540     0.0   36.7231
12552  12511.0   662.495      6.5837   8.6674     0.0   36.9772
12562  12521.0   662.895      6.5975   8.6811     0.0   37.2183
12572  12531.0   663.295      6.6104   8.6941     0.0   37.4509
12582  12541.0   663.695      6.6243   8.7080     0.0   37.7092
12592  12551.0   664.095      6.6375   8.7211     0.0   37.9224
12602  12561.0   664.495      6.6507   8.7344     0.0   38.1311
12612  12571.0   664.895      6.6643   8.7480     0.0   38.3607
12622  12581.0   665.295      6.6773   8.7609     0.0   38.5811
12632  12591.0   665.695      6.6909   8.7746     0.0   38.7931
12642  12601.0   666.095      6.7038   8.7874     0.0   38.9894
12652  12611.0   666.495      6.7173   8.8010     0.0   39.1803
12662  12621.0   666.895      6.7304   8.8141     0.0   39.3907
12672  12631.0   667.295      6.7436   8.8272     0.0   39.5837
12682  12641.0   667.695      6.7573   8.8410     0.0   39.8049
12692  12651.0   668.095      6.7709   8.8546     0.0   40.0066
12702  12661.0   668.495      6.7834   8.8671     0.0   40.1716
12712  12671.0   668.895      6.7968   8.8805     0.0   40.3856
12722  12681.0   669.295      6.8105   8.8941     0.0   40.5779
12732  12691.0   669.695      6.8237   8.9074     0.0   40.7627
12742  12701.0   670.095      6.8372   8.9209     0.0   40.9771
12752  12711.0   670.495      6.8507   8.9343     0.0   41.1671
12762  12721.0   670.895      6.8634   8.9470     0.0   41.3762
12772  12731.0   671.295      6.8774   8.9610     0.0   41.5561
12782  12741.0   671.695      6.8902   8.9739     0.0   41.7327
12792  12751.0   672.095      6.9038   8.9874     0.0   41.9213
12802  12761.0   672.495      6.9166   9.0003     0.0   42.1147
12812  12771.0   672.895      6.9304   9.0141     0.0   42.3127
12822  12781.0   673.295      6.9435   9.0272     0.0   42.5096
12832  12791.0   673.695      6.9570   9.0407     0.0   42.6723
12842  12801.0   674.095      6.9700   9.0537     0.0   42.8820
12852  12811.0   674.495      6.9837   9.0674     0.0   43.0718
12862  12821.0   674.895      6.9971   9.0807     0.0   43.2547
12872  12831.0   675.295      7.0104   9.0941     0.0   43.4327
12882  12841.0   675.695      7.0241   9.1077     0.0   43.6173
12892  12851.0   676.095      7.0367   9.1203     0.0   43.7808
12902  12861.0   676.495      7.0503   9.1339     0.0   43.9693
12912  12871.0   676.895      7.0634   9.1470     0.0   44.1506
12922  12881.0   677.295      7.0767   9.1603     0.0   44.3346
12932  12891.0   677.695      7.0907   9.1744     0.0   44.5216
12942  12901.0   678.095      7.1039   9.1876     0.0   44.7051
12952  12911.0   678.495      7.1164   9.2000     0.0   44.8619
12968  12921.0   678.895      7.1173   9.2010     0.0   44.6424
12978  12931.0   679.295      7.1158   9.1994     0.0   44.5036
12988  12941.0   679.695      7.1158   9.1995     0.0   44.4077
12998  12951.0   680.095      7.1161   9.1998     0.0   44.3348
13008  12961.0   680.495      7.1163   9.2000     0.0   44.2626
13018  12971.0   680.895      7.1162   9.1999     0.0   44.1902
13028  12981.0   681.295      7.1158   9.1995     0.0   44.1266
13038  12991.0   681.695      7.1162   9.1999     0.0   44.0713
13048  13001.0   682.095      7.1166   9.2003     0.0   44.0217
13058  13011.0   682.495      7.1159   9.1996     0.0   43.9659
13068  13021.0   682.895      7.1163   9.2000     0.0   43.9189
13078  13031.0   683.295      7.1162   9.1998     0.0   43.8710
13088  13041.0   683.695      7.1163   9.2000     0.0   43.8417
13098  13051.0   684.095      7.1160   9.1996     0.0   43.7870
13108  13061.0   684.495      7.1163   9.2000     0.0   43.7618
13118  13071.0   684.895      7.1162   9.1999     0.0   43.7187
13128  13081.0   685.295      7.1160   9.1997     0.0   43.6774
13138  13091.0   685.695      7.1161   9.1998     0.0   43.6441
13148  13101.0   686.095      7.1165   9.2001     0.0   43.6098
13158  13111.0   686.495      7.1162   9.1998     0.0   43.5784
13168  13121.0   686.895      7.1163   9.1999     0.0   43.5432
13178  13131.0   687.295      7.1164   9.2001     0.0   43.5196
13188  13141.0   687.695      7.1160   9.1997     0.0   43.4796
13198  13151.0   688.095      7.1162   9.1999     0.0   43.4605
13208  13161.0   688.495      7.1165   9.2002     0.0   43.4237
13218  13171.0   688.895      7.1165   9.2002     0.0   43.3998
13228  13181.0   689.295      7.1165   9.2002     0.0   43.3674
13238  13191.0   689.695      7.1164   9.2001     0.0   43.3339
13248  13201.0   690.095      7.1162   9.1998     0.0   43.3047
13258  13211.0   690.495      7.1162   9.1998     0.0   43.2902
13268  13221.0   690.895      7.1161   9.1997     0.0   43.2899
13278  13231.0   691.295      7.1162   9.1999     0.0   43.2610
13288  13241.0   691.695      7.1163   9.2000     0.0   43.2346
13298  13251.0   692.095      7.1163   9.1999     0.0   43.2139
13308  13261.0   692.495      7.1163   9.2000     0.0   43.1846
13318  13271.0   692.895      7.1166   9.2003     0.0   43.1631
13328  13281.0   693.295      7.1164   9.2001     0.0   43.1488
13338  13291.0   693.695      7.1166   9.2003     0.0   43.1290
13348  13301.0   694.095      7.1167   9.2004     0.0   43.1011
13358  13311.0   694.495      7.1161   9.1997     0.0   43.0641
13368  13321.0   694.895      7.1162   9.1998     0.0   43.0456
13378  13331.0   695.295      7.1165   9.2001     0.0   43.0343
13388  13341.0   695.695      7.1162   9.1999     0.0   43.0145
13398  13351.0   696.095      7.1161   9.1998     0.0   43.0025
13408  13361.0   696.495      7.1161   9.1998     0.0   42.9815
13418  13371.0   696.895      7.1163   9.1999     0.0   42.9614
13428  13381.0   697.295      7.1166   9.2003     0.0   42.9333
13438  13391.0   697.695      7.1163   9.1999     0.0   42.9219
13448  13401.0   698.095      7.1159   9.1995     0.0   42.9000
13458  13411.0   698.495      7.1166   9.2003     0.0   42.8984
13469  13421.0   698.895      7.1165   9.2002     0.0   42.8754
13479  13431.0   699.295      7.1168   9.2004     0.0   42.8650
13489  13441.0   699.695      7.1164   9.2000     0.0   42.8427
13499  13451.0   700.095      7.1162   9.1998     0.0   42.8251
13509  13461.0   700.495      7.1162   9.1998     0.0   42.7985
13519  13471.0   700.895      7.1165   9.2001     0.0   42.7934
13529  13481.0   701.295      7.1162   9.1999     0.0   42.7799
13539  13491.0   701.695      7.1165   9.2002     0.0   42.7588
13549  13501.0   702.095      7.1164   9.2000     0.0   42.7473
13559  13511.0   702.495      7.1164   9.2001     0.0   42.7264
13569  13521.0   702.895      7.1162   9.1999     0.0   42.6951
13579  13531.0   703.295      7.1163   9.2000     0.0   42.7004
13589  13541.0   703.695      7.1161   9.1997     0.0   42.6879
13599  13551.0   704.095      7.1163   9.1999     0.0   42.6721
13609  13561.0   704.495      7.1165   9.2001     0.0   42.6373
13619  13571.0   704.895      7.1161   9.1997     0.0   42.6314
13629  13581.0   705.295      7.1168   9.2004     0.0   42.6289
13639  13591.0   705.695      7.1168   9.2005     0.0   42.6141
13649  13601.0   706.095      7.1162   9.1999     0.0   42.6007
13659  13611.0   706.495      7.1160   9.1997     0.0   42.5839
13669  13621.0   706.895      7.1163   9.1999     0.0   42.5829
13679  13631.0   707.295      7.1158   9.1995     0.0   42.5659
13689  13641.0   707.695      7.1164   9.2001     0.0   42.5507
13699  13651.0   708.095      7.1162   9.1999     0.0   42.5252
13709  13661.0   708.495      7.1164   9.2001     0.0   42.5272
13719  13671.0   708.895      7.1166   9.2003     0.0   42.5224
13729  13681.0   709.295      7.1168   9.2005     0.0   42.5027
13739  13691.0   709.695      7.1162   9.1998     0.0   42.4833
13749  13701.0   710.095      7.1162   9.1999     0.0   42.4788
13759  13711.0   710.495      7.1165   9.2002     0.0   42.4630
13769  13721.0   710.895      7.1162   9.1999     0.0   42.4576
13779  13731.0   711.295      7.1163   9.2000     0.0   42.4392
13789  13741.0   711.695      7.1165   9.2002     0.0   42.4291
13799  13751.0   712.095      7.1165   9.2002     0.0   42.4154
13809  13761.0   712.495      7.1159   9.1996     0.0   42.4103
13819  13771.0   712.895      7.1163   9.2000     0.0   42.3943
13829  13781.0   713.295      7.1168   9.2004     0.0   42.3757
13839  13791.0   713.695      7.1170   9.2007     0.0   42.3672
13849  13801.0   714.095      7.1163   9.2000     0.0   42.3587
13859  13811.0   714.495      7.1167   9.2004     0.0   42.3421
13869  13821.0   714.895      7.1167   9.2004     0.0   42.3235
13879  13831.0   715.295      7.1163   9.1999     0.0   42.3127
13889  13841.0   715.695      7.1167   9.2004     0.0   42.3061
13899  13851.0   716.095      7.1161   9.1998     0.0   42.3021
13909  13861.0   716.495      7.1159   9.1996     0.0   42.2864
13919  13871.0   716.895      7.1167   9.2004     0.0   42.2817
13929  13881.0   717.295      7.1163   9.2000     0.0   42.2735
13939  13891.0   717.695      7.1168   9.2004     0.0   42.2726
13949  13901.0   718.095      7.1166   9.2002     0.0   42.2466
13959  13911.0   718.495      7.1157   9.1994     0.0   42.1950
13969  13921.0   718.895      7.1165   9.2002     0.0   42.2485
13979  13931.0   719.295      7.1164   9.2001     0.0   42.2082
13989  13941.0   719.695      7.1161   9.1998     0.0   42.2185
13999  13951.0   720.095      7.1158   9.1994     0.0   42.1969
14009  13961.0   720.495      7.1162   9.1999     0.0   42.1865
14019  13971.0   720.895      7.1166   9.2002     0.0   42.1966
14029  13981.0   721.295      7.1163   9.1999     0.0   42.1850
14039  13991.0   721.695      7.1163   9.1999     0.0   42.1745
14049  14001.0   722.095      7.1167   9.2004     0.0   42.1554
14059  14011.0   722.495      7.1158   9.1994     0.0   42.1478
14069  14021.0   722.895      7.1163   9.2000     0.0   42.1456
14079  14031.0   723.295      7.1162   9.1999     0.0   42.1369
14089  14041.0   723.695      7.1163   9.2000     0.0   42.1439
14099  14051.0   724.095      7.1163   9.2000     0.0   42.1243
14109  14061.0   724.495      7.1162   9.1998     0.0   42.1090
14119  14071.0   724.895      7.1164   9.2001     0.0   42.1079
14129  14081.0   725.295      7.1162   9.1999     0.0   42.0883
14139  14091.0   725.695      7.1165   9.2002     0.0   42.0879
14149  14101.0   726.095      7.1165   9.2002     0.0   42.0761
14159  14111.0   726.495      7.1166   9.2003     0.0   42.0689
14169  14121.0   726.895      7.1162   9.1999     0.0   42.0673
14179  14131.0   727.295      7.1161   9.1998     0.0   42.0502
14189  14141.0   727.695      7.1164   9.2001     0.0   42.0346
14199  14151.0   728.095      7.1163   9.2000     0.0   42.0310
14209  14161.0   728.495      7.1165   9.2002     0.0   42.0301
14219  14171.0   728.895      7.1157   9.1994     0.0   42.0004
14229  14181.0   729.295      7.1163   9.2000     0.0   41.9992
14239  14191.0   729.695      7.1167   9.2004     0.0   41.9975
14249  14201.0   730.095      7.1166   9.2003     0.0   41.9836
14259  14211.0   730.495      7.1165   9.2001     0.0   41.9784
14269  14221.0   730.895      7.1164   9.2001     0.0   41.9638
14279  14231.0   731.295      7.1167   9.2003     0.0   41.9624
14289  14241.0   731.695      7.1162   9.1998     0.0   41.9325
14299  14251.0   732.095      7.1165   9.2002     0.0   41.9326
14309  14261.0   732.495      7.1162   9.1999     0.0   41.9308
14319  14271.0   732.895      7.1163   9.1999     0.0   41.9216
14329  14281.0   733.295      7.1166   9.2002     0.0   41.9180
14339  14291.0   733.695      7.1165   9.2001     0.0   41.9060
14349  14301.0   734.095      7.1162   9.1998     0.0   41.9001
14359  14311.0   734.495      7.1168   9.2005     0.0   41.8844
14369  14321.0   734.895      7.1164   9.2000     0.0   41.8770
14379  14331.0   735.295      7.1164   9.2000     0.0   41.8712
14389  14341.0   735.695      7.1165   9.2001     0.0   41.8710
14399  14351.0   736.095      7.1165   9.2002     0.0   41.8520
14409  14361.0   736.495      7.1163   9.1999     0.0   41.8427
14419  14371.0   736.895      7.1168   9.2005     0.0   41.8458
14429  14381.0   737.295      7.1162   9.1999     0.0   41.8328
14439  14391.0   737.695      7.1160   9.1997     0.0   41.8251
14449  14401.0   738.095      7.1166   9.2003     0.0   41.8310
14459  14411.0   738.495      7.1164   9.2001     0.0   41.8407
14469  14421.0   738.895      7.1162   9.1998     0.0   41.8264
14479  14431.0   739.295      7.1163   9.2000     0.0   41.8263
14489  14441.0   739.695      7.1163   9.2000     0.0   41.8127
14499  14451.0   740.095      7.1160   9.1997     0.0   41.8150
14509  14461.0   740.495      7.1166   9.2002     0.0   41.7980
14519  14471.0   740.895      7.1160   9.1997     0.0   41.7914
14529  14481.0   741.295      7.1164   9.2000     0.0   41.8011
14539  14491.0   741.695      7.1162   9.1998     0.0   41.7911
14549  14501.0   742.095      7.1168   9.2005     0.0   41.7639
14559  14511.0   742.495      7.1160   9.1997     0.0   41.7758
14569  14521.0   742.895      7.1163   9.2000     0.0   41.7810
14579  14531.0   743.295      7.1165   9.2002     0.0   41.7581
14589  14541.0   743.695      7.1164   9.2000     0.0   41.7416
14599  14551.0   744.095      7.1163   9.2000     0.0   41.7423
14609  14561.0   744.495      7.1165   9.2002     0.0   41.7281
14619  14571.0   744.895      7.1166   9.2003     0.0   41.7188
14629  14581.0   745.295      7.1162   9.1999     0.0   41.7147
14639  14591.0   745.695      7.1162   9.1999     0.0   41.7067
14649  14601.0   746.095      7.1162   9.1999     0.0   41.7013
14659  14611.0   746.495      7.1165   9.2002     0.0   41.6922
14669  14621.0   746.895      7.1166   9.2002     0.0   41.6955
14679  14631.0   747.295      7.1165   9.2001     0.0   41.6907
14689  14641.0   747.695      7.1161   9.1998     0.0   41.6884
14699  14651.0   748.095      7.1162   9.1999     0.0   41.6739
14709  14661.0   748.495      7.1166   9.2002     0.0   41.6749
14719  14671.0   748.895      7.1163   9.2000     0.0   41.6670
14729  14681.0   749.295      7.1164   9.2001     0.0   41.6680
14739  14691.0   749.695      7.1162   9.1999     0.0   41.6594
14749  14701.0   750.095      7.1162   9.1999     0.0   41.6567
14759  14711.0   750.495      7.1165   9.2001     0.0   41.6468
14769  14721.0   750.895      7.1164   9.2001     0.0   41.6300
14779  14731.0   751.295      7.1161   9.1997     0.0   41.6119
14789  14741.0   751.695      7.1164   9.2001     0.0   41.6389
14799  14751.0   752.095      7.1167   9.2004     0.0   41.6350
14809  14761.0   752.495      7.1165   9.2001     0.0   41.5959
14819  14771.0   752.895      7.1167   9.2004     0.0   41.5887
14829  14781.0   753.295      7.1163   9.2000     0.0   41.5880
14839  14791.0   753.695      7.1166   9.2002     0.0   41.5964
14849  14801.0   754.095      7.1161   9.1997     0.0   41.5771
14859  14811.0   754.495      7.1161   9.1997     0.0   41.5571
14869  14821.0   754.895      7.1164   9.2001     0.0   41.5656
14879  14831.0   755.295      7.1166   9.2003     0.0   41.5629
14889  14841.0   755.695      7.1167   9.2004     0.0   41.5532
14899  14851.0   756.095      7.1165   9.2002     0.0   41.5480
14909  14861.0   756.495      7.1165   9.2002     0.0   41.5437
14919  14871.0   756.895      7.1166   9.2003     0.0   41.5344
14929  14881.0   757.295      7.1166   9.2002     0.0   41.5310
14939  14891.0   757.695      7.1166   9.2003     0.0   41.5300
14949  14901.0   758.095      7.1163   9.2000     0.0   41.5108
14959  14911.0   758.495      7.1160   9.1997     0.0   41.5080
14969  14921.0   758.895      7.1164   9.2000     0.0   41.5156
14979  14931.0   759.295      7.1166   9.2003     0.0   41.4943
14989  14941.0   759.695      7.1163   9.2000     0.0   41.5035
14999  14951.0   760.095      7.1168   9.2004     0.0   41.4889
15009  14961.0   760.495      7.1166   9.2003     0.0   41.4878
15019  14971.0   760.895      7.1161   9.1998     0.0   41.4775
15029  14981.0   761.295      7.1167   9.2003     0.0   41.4668
15039  14991.0   761.695      7.1167   9.2004     0.0   41.4775
15049  15001.0   762.095      7.1165   9.2001     0.0   41.4849
15059  15011.0   762.495      7.1165   9.2002     0.0   41.4646
15069  15021.0   762.895      7.1168   9.2004     0.0   41.5005
15079  15031.0   763.295      7.1162   9.1998     0.0   41.4736
15089  15041.0   763.695      7.1167   9.2004     0.0   41.4428
15099  15051.0   764.095      7.1162   9.1998     0.0   41.4484
15109  15061.0   764.495      7.1166   9.2002     0.0   41.4710
15119  15071.0   764.895      7.1165   9.2002     0.0   41.4732
15129  15081.0   765.295      7.1168   9.2005     0.0   41.4644
15139  15091.0   765.695      7.1161   9.1998     0.0   41.4711
15149  15101.0   766.095      7.1164   9.2001     0.0   41.4720
15159  15111.0   766.495      7.1159   9.1996     0.0   41.4694
15169  15121.0   766.895      7.1167   9.2004     0.0   41.4649
15179  15131.0   767.295      7.1164   9.2001     0.0   41.4575
15189  15141.0   767.695      7.1162   9.1999     0.0   41.4447
15199  15151.0   768.095      7.1168   9.2004     0.0   41.4580
15209  15161.0   768.495      7.1164   9.2000     0.0   41.4238
15219  15171.0   768.895      7.1163   9.2000     0.0   41.4244
15229  15181.0   769.295      7.1164   9.2000     0.0   41.4226
15239  15191.0   769.695      7.1162   9.1998     0.0   41.4118
15249  15201.0   770.095      7.1166   9.2003     0.0   41.3978
15259  15211.0   770.495      7.1162   9.1999     0.0   41.3820
15269  15221.0   770.895      7.1164   9.2001     0.0   41.3594
15279  15231.0   771.295      7.1165   9.2002     0.0   41.3755
15289  15241.0   771.695      7.1166   9.2002     0.0   41.3642
15299  15251.0   772.095      7.1163   9.2000     0.0   41.3510
15309  15261.0   772.495      7.1164   9.2001     0.0   41.3345
15319  15271.0   772.895      7.1164   9.2001     0.0   41.3387
15329  15281.0   773.295      7.1161   9.1998     0.0   41.3192
15339  15291.0   773.695      7.1169   9.2005     0.0   41.3171
15349  15301.0   774.095      7.1164   9.2001     0.0   41.3359
15359  15311.0   774.495      7.1167   9.2004     0.0   41.3308
15369  15321.0   774.895      7.1162   9.1999     0.0   41.3171
15379  15331.0   775.295      7.1163   9.1999     0.0   41.3200
15389  15341.0   775.695      7.1167   9.2004     0.0   41.3288
15399  15351.0   776.095      7.1166   9.2003     0.0   41.3358
15409  15361.0   776.495      7.1162   9.1998     0.0   41.3212
15419  15371.0   776.895      7.1165   9.2002     0.0   41.3125
15429  15381.0   777.295      7.1164   9.2001     0.0   41.3179
15439  15391.0   777.695      7.1172   9.2009     0.0   41.3088
15449  15401.0   778.095      7.1164   9.2001     0.0   41.3078
15459  15411.0   778.495      7.1161   9.1997     0.0   41.2938
15469  15421.0   778.895      7.1165   9.2002     0.0   41.2974
15479  15431.0   779.295      7.1163   9.2000     0.0   41.2962
15489  15441.0   779.695      7.1162   9.1999     0.0   41.2884
15499  15451.0   780.095      7.1167   9.2004     0.0   41.2727
15509  15461.0   780.495      7.1164   9.2000     0.0   41.2748
15519  15471.0   780.895      7.1165   9.2002     0.0   41.2835
15529  15481.0   781.295      7.1161   9.1998     0.0   41.2765
15539  15491.0   781.695      7.1163   9.2000     0.0   41.2560
15549  15501.0   782.095      7.1168   9.2005     0.0   41.2520
15559  15511.0   782.495      7.1164   9.2000     0.0   41.2409
15569  15521.0   782.895      7.1172   9.2008     0.0   41.2431
15579  15531.0   783.295      7.1164   9.2000     0.0   41.2529
15589  15541.0   783.695      7.1165   9.2002     0.0   41.2549
15599  15551.0   784.095      7.1163   9.2000     0.0   41.2558
15609  15561.0   784.495      7.1164   9.2001     0.0   41.2261
15619  15571.0   784.895      7.1164   9.2001     0.0   41.2011
15629  15581.0   785.295      7.1165   9.2001     0.0   41.1873
15639  15591.0   785.695      7.1162   9.1998     0.0   41.1759
15649  15601.0   786.095      7.1166   9.2003     0.0   41.1812
15659  15611.0   786.495      7.1164   9.2001     0.0   41.1726
15669  15621.0   786.895      7.1165   9.2001     0.0   41.1623
15679  15631.0   787.295      7.1162   9.1999     0.0   41.1601
15689  15641.0   787.695      7.1164   9.2000     0.0   41.1489
15699  15651.0   788.095      7.1169   9.2005     0.0   41.1521
15709  15661.0   788.495      7.1165   9.2002     0.0   41.1362
15719  15671.0   788.895      7.1163   9.2000     0.0   41.1203
15729  15681.0   789.295      7.1164   9.2000     0.0   41.1222
15739  15691.0   789.695      7.1165   9.2002     0.0   41.1178
15749  15701.0   790.095      7.1162   9.1998     0.0   41.1084
15759  15711.0   790.495      7.1160   9.1997     0.0   41.1191
15769  15721.0   790.895      7.1165   9.2001     0.0   41.1187
15779  15731.0   791.295      7.1163   9.1999     0.0   41.1059
15789  15741.0   791.695      7.1165   9.2001     0.0   41.1042
15799  15751.0   792.095      7.1166   9.2002     0.0   41.1039
15809  15761.0   792.495      7.1162   9.1999     0.0   41.1013
15819  15771.0   792.895      7.1166   9.2003     0.0   41.0964
15829  15781.0   793.295      7.1166   9.2002     0.0   41.0911
15839  15791.0   793.695      7.1165   9.2001     0.0   41.0955
15849  15801.0   794.095      7.1167   9.2003     0.0   41.0871
15859  15811.0   794.495      7.1164   9.2001     0.0   41.0814
15869  15821.0   794.895      7.1167   9.2004     0.0   41.0860
15879  15831.0   795.295      7.1165   9.2002     0.0   41.0836
15889  15841.0   795.695      7.1164   9.2001     0.0   41.0720
15899  15851.0   796.095      7.1161   9.1998     0.0   41.0731
15909  15861.0   796.495      7.1159   9.1996     0.0   41.0766
15919  15871.0   796.895      7.1165   9.2002     0.0   41.0759
15929  15881.0   797.295      7.1163   9.2000     0.0   41.0682
15939  15891.0   797.695      7.1167   9.2004     0.0   41.0489
15949  15901.0   798.095      7.1166   9.2002     0.0   41.0458
15959  15911.0   798.495      7.1169   9.2005     0.0   41.0547
15969  15921.0   798.895      7.1164   9.2001     0.0   41.0390
15979  15931.0   799.295      7.1166   9.2002     0.0   41.0410
15989  15941.0   799.695      7.1166   9.2002     0.0   41.0333
15999  15951.0   800.095      7.1163   9.1999     0.0   41.0333
16009  15961.0   800.495      7.1163   9.1999     0.0   41.0243
16019  15971.0   800.895      7.1166   9.2002     0.0   41.0197
16029  15981.0   801.295      7.1165   9.2001     0.0   41.0106
16039  15991.0   801.695      7.1166   9.2002     0.0   41.0173
16049  16001.0   802.095      7.1169   9.2006     0.0   41.0136
16059  16011.0   802.495      7.1165   9.2002     0.0   41.0015
16069  16021.0   802.895      7.1165   9.2002     0.0   41.0032
16079  16031.0   803.295      7.1164   9.2000     0.0   40.9942
16089  16041.0   803.695      7.1165   9.2001     0.0   41.0089
16099  16051.0   804.095      7.1163   9.2000     0.0   40.9960
16109  16061.0   804.495      7.1164   9.2000     0.0   40.9866
16119  16071.0   804.895      7.1164   9.2000     0.0   40.9912
16129  16081.0   805.295      7.1163   9.2000     0.0   40.9752
16139  16091.0   805.695      7.1165   9.2002     0.0   40.9627
16149  16101.0   806.095      7.1163   9.1999     0.0   40.9659
16159  16111.0   806.495      7.1167   9.2003     0.0   40.9616
16169  16121.0   806.895      7.1162   9.1999     0.0   40.9636
16179  16131.0   807.295      7.1163   9.2000     0.0   40.9838
16189  16141.0   807.695      7.1168   9.2004     0.0   40.9752
16199  16151.0   808.095      7.1165   9.2002     0.0   40.9812
16209  16161.0   808.495      7.1163   9.2000     0.0   40.9492
16219  16171.0   808.895      7.1166   9.2003     0.0   40.9457
16229  16181.0   809.295      7.1168   9.2005     0.0   40.9441
16239  16191.0   809.695      7.1166   9.2002     0.0   40.9410
16249  16201.0   810.095      7.1166   9.2003     0.0   40.9436
16259  16211.0   810.495      7.1161   9.1998     0.0   40.9371
16269  16221.0   810.895      7.1169   9.2005     0.0   40.9249
16279  16231.0   811.295      7.1166   9.2002     0.0   40.9246
16289  16241.0   811.695      7.1163   9.1999     0.0   40.9199
16299  16251.0   812.095      7.1166   9.2003     0.0   40.9114
16309  16261.0   812.495      7.1164   9.2001     0.0   40.9131
16319  16271.0   812.895      7.1168   9.2004     0.0   40.9009
16329  16281.0   813.295      7.1166   9.2003     0.0   40.8987
16339  16291.0   813.695      7.1165   9.2002     0.0   40.8986
16349  16301.0   814.095      7.1162   9.1999     0.0   40.8872
16359  16311.0   814.495      7.1168   9.2005     0.0   40.8928
16369  16321.0   814.895      7.1167   9.2004     0.0   40.9015
16379  16331.0   815.295      7.1165   9.2001     0.0   40.8911
16389  16341.0   815.695      7.1166   9.2002     0.0   40.8865
16399  16351.0   816.095      7.1164   9.2001     0.0   40.8792
16409  16361.0   816.495      7.1164   9.2001     0.0   40.8772
16419  16371.0   816.895      7.1165   9.2002     0.0   40.8835
16429  16381.0   817.295      7.1166   9.2002     0.0   40.9005
16439  16391.0   817.695      7.1165   9.2001     0.0   40.8929
16449  16401.0   818.095      7.1164   9.2001     0.0   40.8870
16459  16411.0   818.495      7.1171   9.2008     0.0   40.8841
16469  16421.0   818.895      7.1162   9.1998     0.0   40.8691
16479  16431.0   819.295      7.1166   9.2002     0.0   40.8726
16489  16441.0   819.695      7.1164   9.2000     0.0   40.8627
16499  16451.0   820.095      7.1163   9.1999     0.0   40.8470
16509  16461.0   820.495      7.1165   9.2002     0.0   40.8550
16519  16471.0   820.895      7.1168   9.2005     0.0   40.8554
16529  16481.0   821.295      7.1166   9.2003     0.0   40.8439
16539  16491.0   821.695      7.1170   9.2007     0.0   40.8388
16549  16501.0   822.095      7.1163   9.2000     0.0   40.8335
16559  16511.0   822.495      7.1165   9.2002     0.0   40.8479
16569  16521.0   822.895      7.1165   9.2002     0.0   40.8460
16579  16531.0   823.295      7.1169   9.2006     0.0   40.8401
16589  16541.0   823.695      7.1165   9.2002     0.0   40.8295
16599  16551.0   824.095      7.1165   9.2001     0.0   40.8206
16609  16561.0   824.495      7.1165   9.2002     0.0   40.8197
16619  16571.0   824.895      7.1164   9.2001     0.0   40.8176
16629  16581.0   825.295      7.1165   9.2001     0.0   40.8170
16639  16591.0   825.695      7.1162   9.1999     0.0   40.8129
16649  16601.0   826.095      7.1166   9.2002     0.0   40.7839
16659  16611.0   826.495      7.1161   9.1998     0.0   40.7788
16669  16621.0   826.895      7.1163   9.2000     0.0   40.7739
16679  16631.0   827.295      7.1161   9.1998     0.0   40.7740
16689  16641.0   827.695      7.1165   9.2001     0.0   40.7840
16699  16651.0   828.095      7.1166   9.2003     0.0   40.7734
16709  16661.0   828.495      7.1165   9.2002     0.0   40.7609
16719  16671.0   828.895      7.1166   9.2003     0.0   40.7641
16729  16681.0   829.295      7.1164   9.2001     0.0   40.7650
16739  16691.0   829.695      7.1167   9.2003     0.0   40.7670
16749  16701.0   830.095      7.1165   9.2001     0.0   40.7738
16759  16711.0   830.495      7.1166   9.2002     0.0   40.7608
16769  16721.0   830.895      7.1164   9.2000     0.0   40.7610
16779  16731.0   831.295      7.1167   9.2003     0.0   40.7520
16789  16741.0   831.695      7.1163   9.2000     0.0   40.7535
16805  16751.0   832.145      7.1243   9.2079     0.0   41.0038
16815  16761.0   832.545      7.1371   9.2208     0.0   41.4039
16825  16771.0   832.945      7.1508   9.2344     0.0   41.8074
16835  16781.0   833.345      7.1640   9.2476     0.0   42.1807
16845  16791.0   833.745      7.1774   9.2611     0.0   42.5553
16855  16801.0   834.145      7.1913   9.2750     0.0   42.9200
16865  16811.0   834.545      7.2038   9.2875     0.0   43.2520
16875  16821.0   834.945      7.2176   9.3012     0.0   43.5986
16885  16831.0   835.345      7.2305   9.3142     0.0   43.9079
16895  16841.0   835.745      7.2440   9.3277     0.0   44.2248
16905  16851.0   836.145      7.2565   9.3402     0.0   44.5118
16915  16861.0   836.545      7.2707   9.3543     0.0   44.8471
16925  16871.0   836.945      7.2837   9.3673     0.0   45.1229
16935  16881.0   837.345      7.2968   9.3805     0.0   45.4137
16945  16891.0   837.745      7.3100   9.3936     0.0   45.7207
16955  16901.0   838.145      7.3237   9.4073     0.0   45.9939
16965  16911.0   838.545      7.3368   9.4204     0.0   46.2621
16975  16921.0   838.945      7.3498   9.4335     0.0   46.5146
16985  16931.0   839.345      7.3637   9.4473     0.0   46.7624
16995  16941.0   839.745      7.3767   9.4604     0.0   47.0172
17005  16951.0   840.145      7.3903   9.4739     0.0   47.2569
17015  16961.0   840.545      7.4036   9.4872     0.0   47.4974
17025  16971.0   840.945      7.4169   9.5006     0.0   47.7290
17035  16981.0   841.345      7.4301   9.5137     0.0   47.9521
17045  16991.0   841.745      7.4433   9.5269     0.0   48.1750
17055  17001.0   842.145      7.4566   9.5402     0.0   48.3979
17065  17011.0   842.545      7.4703   9.5540     0.0   48.6048
17075  17021.0   842.945      7.4837   9.5674     0.0   48.8240
17085  17031.0   843.345      7.4972   9.5808     0.0   49.0190
17095  17041.0   843.745      7.5105   9.5942     0.0   49.2242
17105  17051.0   844.145      7.5236   9.6073     0.0   49.4150
17115  17061.0   844.545      7.5366   9.6203     0.0   49.6261
17125  17071.0   844.945      7.5500   9.6337     0.0   49.8217
17135  17081.0   845.345      7.5638   9.6475     0.0   50.0169
17145  17091.0   845.745      7.5767   9.6604     0.0   50.2182
17155  17101.0   846.145      7.5901   9.6738     0.0   50.4060
17165  17111.0   846.545      7.6038   9.6874     0.0   50.5975
17175  17121.0   846.945      7.6169   9.7006     0.0   50.7746
17185  17131.0   847.345      7.6304   9.7140     0.0   50.9708
17195  17141.0   847.745      7.6433   9.7270     0.0   51.1608
17205  17151.0   848.145      7.6566   9.7403     0.0   51.3221
17215  17161.0   848.545      7.6699   9.7536     0.0   51.5068
17225  17171.0   848.945      7.6834   9.7670     0.0   51.7121
17235  17181.0   849.345      7.6970   9.7807     0.0   51.8898
17245  17191.0   849.745      7.7101   9.7938     0.0   52.0741
17255  17201.0   850.145      7.7227   9.8064     0.0   52.2441
17265  17211.0   850.545      7.7371   9.8208     0.0   52.4572
17275  17221.0   850.945      7.7499   9.8336     0.0   52.6282
17285  17231.0   851.345      7.7637   9.8473     0.0   52.8027
17295  17241.0   851.745      7.7769   9.8606     0.0   52.9745
17305  17251.0   852.145      7.7903   9.8740     0.0   53.1606
17315  17261.0   852.545      7.8033   9.8869     0.0   53.3253
17325  17271.0   852.945      7.8161   9.8998     0.0   53.4801
17335  17281.0   853.345      7.8303   9.9140     0.0   53.6762
17345  17291.0   853.745      7.8431   9.9268     0.0   53.8254
17355  17301.0   854.145      7.8568   9.9404     0.0   53.9993
17365  17311.0   854.545      7.8702   9.9539     0.0   54.1669
17375  17321.0   854.945      7.8834   9.9671     0.0   54.3301
17385  17331.0   855.345      7.8965   9.9802     0.0   54.4980
17395  17341.0   855.745      7.9097   9.9934     0.0   54.6719
17405  17351.0   856.145      7.9231  10.0068     0.0   54.8247
17415  17361.0   856.545      7.9366  10.0202     0.0   54.9957
17425  17371.0   856.945      7.9501  10.0338     0.0   55.1753
17435  17381.0   857.345      7.9633  10.0470     0.0   55.3438
17445  17391.0   857.745      7.9768  10.0605     0.0   55.5075
17455  17401.0   858.145      7.9894  10.0731     0.0   55.6453
17465  17411.0   858.545      8.0032  10.0868     0.0   55.8109
17475  17421.0   858.945      8.0160  10.0996     0.0   55.9783
17485  17431.0   859.345      8.0300  10.1136     0.0   56.1358
17495  17441.0   859.745      8.0429  10.1266     0.0   56.2800
17505  17451.0   860.145      8.0567  10.1404     0.0   56.4440
17515  17461.0   860.545      8.0701  10.1538     0.0   56.5984
17525  17471.0   860.945      8.0827  10.1663     0.0   56.7464
17535  17481.0   861.345      8.0967  10.1804     0.0   56.9246
17545  17491.0   861.745      8.1102  10.1939     0.0   57.0744
17555  17501.0   862.145      8.1235  10.2071     0.0   57.2132
17565  17511.0   862.545      8.1364  10.2201     0.0   57.3676
17575  17521.0   862.945      8.1498  10.2335     0.0   57.5093
17585  17531.0   863.345      8.1633  10.2469     0.0   57.6550
17595  17541.0   863.745      8.1766  10.2603     0.0   57.7953
17605  17551.0   864.145      8.1896  10.2733     0.0   57.9428
17615  17561.0   864.545      8.2034  10.2870     0.0   58.0788
17625  17571.0   864.945      8.2164  10.3001     0.0   58.2079
17635  17581.0   865.345      8.2300  10.3136     0.0   58.3488
17645  17591.0   865.745      8.2428  10.3265     0.0   58.4595
17655  17601.0   866.145      8.2568  10.3404     0.0   58.6088
17665  17611.0   866.545      8.2696  10.3533     0.0   58.7199
17675  17621.0   866.945      8.2831  10.3668     0.0   58.8593
17685  17631.0   867.345      8.2968  10.3804     0.0   58.9975
17695  17641.0   867.745      8.3100  10.3937     0.0   59.1214
17705  17651.0   868.145      8.3232  10.4068     0.0   59.2465
17715  17661.0   868.545      8.3361  10.4198     0.0   59.3751
17725  17671.0   868.945      8.3494  10.4331     0.0   59.4971
17735  17681.0   869.345      8.3632  10.4468     0.0   59.6328
17745  17691.0   869.745      8.3764  10.4601     0.0   59.7493
17755  17701.0   870.145      8.3896  10.4732     0.0   59.8680
17765  17711.0   870.545      8.4033  10.4870     0.0   60.0040
17775  17721.0   870.945      8.4166  10.5003     0.0   60.1140
17785  17731.0   871.345      8.4300  10.5136     0.0   60.2322
17795  17741.0   871.745      8.4432  10.5269     0.0   60.3416
17805  17751.0   872.145      8.4556  10.5392     0.0   60.4622
17815  17761.0   872.545      8.4695  10.5531     0.0   60.5840
17825  17771.0   872.945      8.4826  10.5663     0.0   60.6883
17835  17781.0   873.345      8.4969  10.5806     0.0   60.7986
17845  17791.0   873.745      8.5102  10.5938     0.0   60.9292
17855  17801.0   874.145      8.5233  10.6069     0.0   61.0371
17865  17811.0   874.545      8.5369  10.6206     0.0   61.1532
17875  17821.0   874.945      8.5502  10.6338     0.0   61.2506
17885  17831.0   875.345      8.5633  10.6470     0.0   61.3586
17895  17841.0   875.745      8.5766  10.6602     0.0   61.4744
17905  17851.0   876.145      8.5897  10.6733     0.0   61.5660
17915  17861.0   876.545      8.6028  10.6865     0.0   61.6674
17925  17871.0   876.945      8.6162  10.6999     0.0   61.7810
17935  17881.0   877.345      8.6301  10.7138     0.0   61.8911
17945  17891.0   877.745      8.6428  10.7265     0.0   61.9769
17955  17901.0   878.145      8.6558  10.7395     0.0   62.0788
17965  17911.0   878.545      8.6700  10.7537     0.0   62.1723
17975  17921.0   878.945      8.6831  10.7667     0.0   62.2611
17985  17931.0   879.345      8.6966  10.7802     0.0   62.3636
17995  17941.0   879.745      8.7096  10.7932     0.0   62.4492
18005  17951.0   880.145      8.7230  10.8067     0.0   62.5532
18015  17961.0   880.545      8.7362  10.8199     0.0   62.6343
18025  17971.0   880.945      8.7496  10.8333     0.0   62.7184
18035  17981.0   881.345      8.7628  10.8465     0.0   62.7986
18045  17991.0   881.745      8.7760  10.8597     0.0   62.8711
18055  18001.0   882.145      8.7898  10.8734     0.0   62.9753
18065  18011.0   882.545      8.8028  10.8865     0.0   63.0187
18075  18021.0   882.945      8.8164  10.9000     0.0   63.1127
18085  18031.0   883.345      8.8293  10.9130     0.0   63.1849
18095  18041.0   883.745      8.8433  10.9270     0.0   63.2551
18105  18051.0   884.145      8.8561  10.9398     0.0   63.3135
18115  18061.0   884.545      8.8698  10.9534     0.0   63.4125
18125  18071.0   884.945      8.8832  10.9669     0.0   63.4806
18135  18081.0   885.345      8.8963  10.9799     0.0   63.5568
18145  18091.0   885.745      8.9100  10.9937     0.0   63.6172
18155  18101.0   886.145      8.9233  11.0070     0.0   63.6930
18165  18111.0   886.545      8.9359  11.0196     0.0   63.7565
18175  18121.0   886.945      8.9495  11.0331     0.0   63.8417
18185  18131.0   887.345      8.9629  11.0465     0.0   63.8866
18195  18141.0   887.745      8.9763  11.0599     0.0   63.9535
18205  18151.0   888.145      8.9897  11.0733     0.0   64.0250
18215  18161.0   888.545      9.0033  11.0870     0.0   64.1119
18225  18171.0   888.945      9.0165  11.1002     0.0   64.1448
18235  18181.0   889.345      9.0300  11.1136     0.0   64.2062
18245  18191.0   889.745      9.0437  11.1273     0.0   64.2595
18255  18201.0   890.145      9.0565  11.1402     0.0   64.2974
18265  18211.0   890.545      9.0697  11.1534     0.0   64.3519
18275  18221.0   890.945      9.0827  11.1663     0.0   64.4091
18285  18231.0   891.345      9.0962  11.1799     0.0   64.4753
18295  18241.0   891.745      9.1097  11.1933     0.0   64.5076
18305  18251.0   892.145      9.1230  11.2067     0.0   64.5513
18315  18261.0   892.545      9.1367  11.2204     0.0   64.6050
18325  18271.0   892.945      9.1496  11.2333     0.0   64.6479
18335  18281.0   893.345      9.1628  11.2465     0.0   64.6999
18345  18291.0   893.745      9.1764  11.2600     0.0   64.7276
18355  18301.0   894.145      9.1899  11.2735     0.0   64.7823
18365  18311.0   894.545      9.2027  11.2863     0.0   64.8212
18375  18321.0   894.945      9.2165  11.3001     0.0   64.8790
18385  18331.0   895.345      9.2298  11.3135     0.0   64.9206
18395  18341.0   895.745      9.2435  11.3272     0.0   64.9541
18405  18351.0   896.145      9.2565  11.3401     0.0   64.9939
18415  18361.0   896.545      9.2699  11.3535     0.0   65.0217
18425  18371.0   896.945      9.2832  11.3669     0.0   65.0596
18435  18381.0   897.345      9.2969  11.3806     0.0   65.1071
18445  18391.0   897.745      9.3097  11.3934     0.0   65.1352
18455  18401.0   898.145      9.3230  11.4067     0.0   65.1730
18465  18411.0   898.545      9.3355  11.4192     0.0   65.2037
18475  18421.0   898.945      9.3499  11.4336     0.0   65.2702
18485  18431.0   899.345      9.3633  11.4469     0.0   65.3056
18495  18441.0   899.745      9.3764  11.4601     0.0   65.3284
18505  18451.0   900.145      9.3904  11.4740     0.0   65.3987
18515  18461.0   900.545      9.4032  11.4869     0.0   65.4134
18525  18471.0   900.945      9.4168  11.5004     0.0   65.4689
18535  18481.0   901.345      9.4296  11.5133     0.0   65.4857
18545  18491.0   901.745      9.4432  11.5269     0.0   65.5248
18555  18501.0   902.145      9.4565  11.5401     0.0   65.5652
18565  18511.0   902.545      9.4699  11.5536     0.0   65.5927
18575  18521.0   902.945      9.4824  11.5661     0.0   65.6003
18585  18531.0   903.345      9.4964  11.5801     0.0   65.6719
18595  18541.0   903.745      9.5098  11.5935     0.0   65.6796
18605  18551.0   904.145      9.5222  11.6058     0.0   65.6838
18615  18561.0   904.545      9.5361  11.6198     0.0   65.7380
18625  18571.0   904.945      9.5505  11.6342     0.0   65.7711
18635  18581.0   905.345      9.5632  11.6469     0.0   65.7964
18645  18591.0   905.745      9.5763  11.6600     0.0   65.8294
18655  18601.0   906.145      9.5893  11.6730     0.0   65.8521
18665  18611.0   906.545      9.6035  11.6872     0.0   65.8924
18675  18621.0   906.945      9.6164  11.7001     0.0   65.9230
18685  18631.0   907.345      9.6295  11.7132     0.0   65.9523
18695  18641.0   907.745      9.6422  11.7258     0.0   65.9573
18705  18651.0   908.145      9.6563  11.7400     0.0   66.0205
18715  18661.0   908.545      9.6697  11.7534     0.0   66.0512
18725  18671.0   908.945      9.6831  11.7667     0.0   66.0916
18735  18681.0   909.345      9.6963  11.7800     0.0   66.1074
18745  18691.0   909.745      9.7090  11.7926     0.0   66.1391
18755  18701.0   910.145      9.7233  11.8069     0.0   66.1558
18765  18711.0   910.545      9.7363  11.8200     0.0   66.2168
18775  18721.0   910.945      9.7497  11.8334     0.0   66.2348
18785  18731.0   911.345      9.7634  11.8470     0.0   66.2682
18795  18741.0   911.745      9.7768  11.8604     0.0   66.2989
18805  18751.0   912.145      9.7895  11.8732     0.0   66.3377
18815  18761.0   912.545      9.8034  11.8871     0.0   66.3726
18825  18771.0   912.945      9.8166  11.9003     0.0   66.3970
18835  18781.0   913.345      9.8297  11.9133     0.0   66.4191
18845  18791.0   913.745      9.8428  11.9264     0.0   66.4548
18855  18801.0   914.145      9.8566  11.9403     0.0   66.4854
18865  18811.0   914.545      9.8698  11.9535     0.0   66.4988
18875  18821.0   914.945      9.8833  11.9670     0.0   66.5394
18885  18831.0   915.345      9.8967  11.9804     0.0   66.5694
18895  18841.0   915.745      9.9093  11.9929     0.0   66.5894
18905  18851.0   916.145      9.9228  12.0064     0.0   66.6263
18915  18861.0   916.545      9.9362  12.0199     0.0   66.6561
18925  18871.0   916.945      9.9489  12.0326     0.0   66.6574
18935  18881.0   917.345      9.9632  12.0468     0.0   66.7108
18945  18891.0   917.745      9.9765  12.0601     0.0   66.7207
18955  18901.0   918.145      9.9896  12.0732     0.0   66.7640
18965  18911.0   918.545     10.0032  12.0869     0.0   66.7826
18975  18921.0   918.945     10.0168  12.1005     0.0   66.8132
18985  18931.0   919.345     10.0297  12.1134     0.0   66.8361
18995  18941.0   919.745     10.0425  12.1261     0.0   66.8583
19005  18951.0   920.145     10.0567  12.1404     0.0   66.8881
19015  18961.0   920.545     10.0698  12.1535     0.0   66.9148
19025  18971.0   920.945     10.0835  12.1672     0.0   66.9482
19035  18981.0   921.345     10.0967  12.1803     0.0   66.9661
19045  18991.0   921.745     10.1101  12.1938     0.0   67.0045
19055  19001.0   922.145     10.1229  12.2065     0.0   67.0423
19065  19011.0   922.545     10.1364  12.2201     0.0   67.0563
19075  19021.0   922.945     10.1498  12.2335     0.0   67.0876
19085  19031.0   923.345     10.1630  12.2466     0.0   67.1075
19095  19041.0   923.745     10.1762  12.2599     0.0   67.1308
19105  19051.0   924.145     10.1891  12.2728     0.0   67.1630
19115  19061.0   924.545     10.2032  12.2869     0.0   67.1976
19125  19071.0   924.945     10.2166  12.3003     0.0   67.2230
19135  19081.0   925.345     10.2296  12.3133     0.0   67.2392
19145  19091.0   925.745     10.2431  12.3268     0.0   67.2733
19155  19101.0   926.145     10.2567  12.3403     0.0   67.3033
19165  19111.0   926.545     10.2695  12.3532     0.0   67.3107
19175  19121.0   926.945     10.2828  12.3665     0.0   67.3408
19185  19131.0   927.345     10.2963  12.3800     0.0   67.3749
19195  19141.0   927.745     10.3094  12.3930     0.0   67.3832
19205  19151.0   928.145     10.3230  12.4067     0.0   67.4054
19215  19161.0   928.545     10.3368  12.4205     0.0   67.4447
19225  19171.0   928.945     10.3492  12.4329     0.0   67.4740
19235  19181.0   929.345     10.3624  12.4461     0.0   67.4773
19245  19191.0   929.745     10.3766  12.4602     0.0   67.5064
19255  19201.0   930.145     10.3894  12.4731     0.0   67.5154
19265  19211.0   930.545     10.4033  12.4870     0.0   67.5396
19275  19221.0   930.945     10.4164  12.5000     0.0   67.5688
19285  19231.0   931.345     10.4297  12.5134     0.0   67.5773
19295  19241.0   931.745     10.4429  12.5266     0.0   67.6110
19305  19251.0   932.145     10.4564  12.5401     0.0   67.6196
19315  19261.0   932.545     10.4700  12.5537     0.0   67.6532
19325  19271.0   932.945     10.4829  12.5666     0.0   67.6590
19335  19281.0   933.345     10.4964  12.5800     0.0   67.6796
19345  19291.0   933.745     10.5094  12.5931     0.0   67.7007
19355  19301.0   934.145     10.5233  12.6070     0.0   67.7213
19365  19311.0   934.545     10.5366  12.6203     0.0   67.7319
19375  19321.0   934.945     10.5497  12.6334     0.0   67.7707
19385  19331.0   935.345     10.5633  12.6469     0.0   67.7682
19395  19341.0   935.745     10.5763  12.6599     0.0   67.7950
19405  19351.0   936.145     10.5902  12.6738     0.0   67.8281
19415  19361.0   936.545     10.6034  12.6870     0.0   67.8340
19425  19371.0   936.945     10.6162  12.6998     0.0   67.8324
19435  19381.0   937.345     10.6297  12.7134     0.0   67.8497
19445  19391.0   937.745     10.6430  12.7267     0.0   67.8718
19455  19401.0   938.145     10.6562  12.7398     0.0   67.8874
19465  19411.0   938.545     10.6698  12.7534     0.0   67.9230
19475  19421.0   938.945     10.6822  12.7658     0.0   67.8934
19485  19431.0   939.345     10.6957  12.7793     0.0   67.9310
19495  19441.0   939.745     10.7095  12.7932     0.0   67.9655
19505  19451.0   940.145     10.7232  12.8069     0.0   67.9734
19515  19461.0   940.545     10.7363  12.8200     0.0   68.0014
19525  19471.0   940.945     10.7495  12.8331     0.0   67.9872
19535  19481.0   941.345     10.7633  12.8469     0.0   68.0391
19545  19491.0   941.745     10.7762  12.8599     0.0   68.0481
19555  19501.0   942.145     10.7892  12.8729     0.0   68.0601
19565  19511.0   942.545     10.8025  12.8862     0.0   68.0738
19575  19521.0   942.945     10.8167  12.9003     0.0   68.0991
19585  19531.0   943.345     10.8297  12.9134     0.0   68.1026
19595  19541.0   943.745     10.8428  12.9265     0.0   68.1052
19605  19551.0   944.145     10.8564  12.9400     0.0   68.1289
19615  19561.0   944.545     10.8701  12.9537     0.0   68.1254
19625  19571.0   944.945     10.8827  12.9664     0.0   68.1393
19635  19581.0   945.345     10.8962  12.9798     0.0   68.1563
19645  19591.0   945.745     10.9096  12.9933     0.0   68.1772
19655  19601.0   946.145     10.9232  13.0068     0.0   68.1816
19665  19611.0   946.545     10.9362  13.0199     0.0   68.2068
19675  19621.0   946.945     10.9497  13.0333     0.0   68.1987
19685  19631.0   947.345     10.9628  13.0465     0.0   68.2208
19695  19641.0   947.745     10.9763  13.0599     0.0   68.2391
19705  19651.0   948.145     10.9903  13.0739     0.0   68.2521
19715  19661.0   948.545     11.0035  13.0872     0.0   68.2431
19725  19671.0   948.945     11.0166  13.1003     0.0   68.2472
19735  19681.0   949.345     11.0304  13.1141     0.0   68.2818
19745  19691.0   949.745     11.0426  13.1262     0.0   68.2565
19755  19701.0   950.145     11.0565  13.1402     0.0   68.2843
19765  19711.0   950.545     11.0691  13.1528     0.0   68.2820
19775  19721.0   950.945     11.0834  13.1670     0.0   68.3058
19785  19731.0   951.345     11.0964  13.1801     0.0   68.3219
19795  19741.0   951.745     11.1100  13.1936     0.0   68.3351
19805  19751.0   952.145     11.1231  13.2067     0.0   68.3405
19815  19761.0   952.545     11.1363  13.2199     0.0   68.3397
19825  19771.0   952.945     11.1503  13.2339     0.0   68.3566
19835  19781.0   953.345     11.1636  13.2472     0.0   68.3528
19845  19791.0   953.745     11.1767  13.2604     0.0   68.3581
19855  19801.0   954.145     11.1901  13.2738     0.0   68.3622
19865  19811.0   954.545     11.2033  13.2870     0.0   68.3538
19875  19821.0   954.945     11.2164  13.3001     0.0   68.3839
19885  19831.0   955.345     11.2303  13.3139     0.0   68.3998
19895  19841.0   955.745     11.2431  13.3268     0.0   68.3946
19905  19851.0   956.145     11.2565  13.3402     0.0   68.3896
19915  19861.0   956.545     11.2694  13.3530     0.0   68.3934
19925  19871.0   956.945     11.2824  13.3661     0.0   68.3573
19935  19881.0   957.345     11.2968  13.3804     0.0   68.4032
19945  19891.0   957.745     11.3095  13.3932     0.0   68.4070
19955  19901.0   958.145     11.3233  13.4069     0.0   68.3875
19965  19911.0   958.545     11.3364  13.4200     0.0   68.4200
19975  19921.0   958.945     11.3497  13.4334     0.0   68.4232
19985  19931.0   959.345     11.3627  13.4464     0.0   68.4308
19995  19941.0   959.745     11.3769  13.4605     0.0   68.4641
20005  19951.0   960.145     11.3900  13.4737     0.0   68.4790
20015  19961.0   960.545     11.4032  13.4869     0.0   68.4639
20025  19971.0   960.945     11.4158  13.4995     0.0   68.4948
20035  19981.0   961.345     11.4294  13.5131     0.0   68.5032
20045  19991.0   961.745     11.4429  13.5266     0.0   68.5191
20055  20001.0   962.145     11.4567  13.5404     0.0   68.5178
20065  20011.0   962.545     11.4691  13.5528     0.0   68.5433
20075  20021.0   962.945     11.4833  13.5670     0.0   68.5761
20085  20031.0   963.345     11.4965  13.5802     0.0   68.5924
20095  20041.0   963.745     11.5092  13.5929     0.0   68.5818
20105  20051.0   964.145     11.5233  13.6070     0.0   68.6362
20115  20061.0   964.545     11.5365  13.6201     0.0   68.6512
20125  20071.0   964.945     11.5497  13.6334     0.0   68.6430
20135  20081.0   965.345     11.5629  13.6465     0.0   68.6689
20145  20091.0   965.745     11.5763  13.6600     0.0   68.6931
20155  20101.0   966.145     11.5901  13.6738     0.0   68.6870
20165  20111.0   966.545     11.6034  13.6871     0.0   68.7238
20175  20121.0   966.945     11.6162  13.6999     0.0   68.7403
20185  20131.0   967.345     11.6303  13.7140     0.0   68.7530
20195  20141.0   967.745     11.6428  13.7265     0.0   68.7672
20205  20151.0   968.145     11.6558  13.7395     0.0   68.7456
20215  20161.0   968.545     11.6697  13.7534     0.0   68.8222
20225  20171.0   968.945     11.6822  13.7658     0.0   68.8180
20235  20181.0   969.345     11.6968  13.7805     0.0   68.8759
20245  20191.0   969.745     11.7098  13.7935     0.0   68.8806
20255  20201.0   970.145     11.7235  13.8072     0.0   68.8729
20265  20211.0   970.545     11.7360  13.8197     0.0   68.9229
20275  20221.0   970.945     11.7492  13.8328     0.0   68.9231
20285  20231.0   971.345     11.7637  13.8473     0.0   68.9594
20295  20241.0   971.745     11.7771  13.8607     0.0   68.9818
20305  20251.0   972.145     11.7898  13.8734     0.0   69.0034
20315  20261.0   972.545     11.8027  13.8863     0.0   69.0052
20325  20271.0   972.945     11.8168  13.9005     0.0   69.0457
20335  20281.0   973.345     11.8299  13.9135     0.0   69.0639
20345  20291.0   973.745     11.8427  13.9264     0.0   69.0804
20355  20301.0   974.145     11.8563  13.9399     0.0   69.0793
20365  20311.0   974.545     11.8697  13.9533     0.0   69.1200
20375  20321.0   974.945     11.8833  13.9669     0.0   69.1151
20385  20331.0   975.345     11.8961  13.9798     0.0   69.1443
20395  20341.0   975.745     11.9092  13.9929     0.0   69.1654
20405  20351.0   976.145     11.9225  14.0061     0.0   69.1960
20415  20361.0   976.545     11.9371  14.0207     0.0   69.2248
20425  20371.0   976.945     11.9500  14.0337     0.0   69.2235
20435  20381.0   977.345     11.9634  14.0471     0.0   69.2459
20445  20391.0   977.745     11.9766  14.0603     0.0   69.2636
20455  20401.0   978.145     11.9899  14.0736     0.0   69.2921
20465  20411.0   978.545     12.0032  14.0869     0.0   69.3072
20475  20421.0   978.945     12.0164  14.1000     0.0   69.3190
20485  20431.0   979.345     12.0288  14.1125     0.0   69.3288
20495  20441.0   979.745     12.0432  14.1268     0.0   69.3715
20505  20451.0   980.145     12.0566  14.1402     0.0   69.3837
20515  20461.0   980.545     12.0697  14.1534     0.0   69.4183
20525  20471.0   980.945     12.0834  14.1671     0.0   69.4309
20535  20481.0   981.345     12.0960  14.1797     0.0   69.4295
20545  20491.0   981.745     12.1100  14.1937     0.0   69.4456
20555  20501.0   982.145     12.1231  14.2067     0.0   69.4597
20565  20511.0   982.545     12.1362  14.2199     0.0   69.4971
20575  20521.0   982.945     12.1504  14.2340     0.0   69.5144
20585  20531.0   983.345     12.1634  14.2471     0.0   69.5263
20595  20541.0   983.745     12.1762  14.2598     0.0   69.5530
20605  20551.0   984.145     12.1899  14.2735     0.0   69.5635
20615  20561.0   984.545     12.2031  14.2867     0.0   69.5547
20625  20571.0   984.945     12.2160  14.2997     0.0   69.5854
20635  20581.0   985.345     12.2298  14.3135     0.0   69.5939
20645  20591.0   985.745     12.2429  14.3266     0.0   69.6033
20655  20601.0   986.145     12.2562  14.3398     0.0   69.6333
20665  20611.0   986.545     12.2699  14.3535     0.0   69.6557
20675  20621.0   986.945     12.2829  14.3666     0.0   69.6556
20685  20631.0   987.345     12.2966  14.3803     0.0   69.6795
20695  20641.0   987.745     12.3097  14.3933     0.0   69.7047
20705  20651.0   988.145     12.3231  14.4067     0.0   69.6927
20715  20661.0   988.545     12.3360  14.4197     0.0   69.7242
20725  20671.0   988.945     12.3496  14.4333     0.0   69.7059
20735  20681.0   989.345     12.3628  14.4465     0.0   69.7406
20745  20691.0   989.745     12.3766  14.4602     0.0   69.7762
20755  20701.0   990.145     12.3900  14.4737     0.0   69.7909
20765  20711.0   990.545     12.4037  14.4874     0.0   69.7977
20775  20721.0   990.945     12.4162  14.4998     0.0   69.8202
20785  20731.0   991.345     12.4297  14.5134     0.0   69.8306
20795  20741.0   991.745     12.4434  14.5270     0.0   69.8292
20805  20751.0   992.145     12.4560  14.5397     0.0   69.8688
20815  20761.0   992.545     12.4709  14.5546     0.0   69.9057
20825  20771.0   992.945     12.4824  14.5661     0.0   69.8995
20835  20781.0   993.345     12.4962  14.5798     0.0   69.9070
20845  20791.0   993.745     12.5101  14.5937     0.0   69.9554
20855  20801.0   994.145     12.5231  14.6068     0.0   69.9481
20865  20811.0   994.545     12.5367  14.6204     0.0   69.9693
20875  20821.0   994.945     12.5493  14.6329     0.0   69.9825
20885  20831.0   995.345     12.5634  14.6470     0.0   70.0045
20895  20841.0   995.745     12.5758  14.6595     0.0   70.0172
20905  20851.0   996.145     12.5902  14.6739     0.0   70.0457
20915  20861.0   996.545     12.6030  14.6867     0.0   70.0538
20925  20871.0   996.945     12.6160  14.6997     0.0   70.0883
20935  20881.0   997.345     12.6299  14.7135     0.0   70.0810
20945  20891.0   997.745     12.6437  14.7273     0.0   70.1137
20955  20901.0   998.145     12.6564  14.7401     0.0   70.1225
20965  20911.0   998.545     12.6696  14.7533     0.0   70.1501
20975  20921.0   998.945     12.6842  14.7679     0.0   70.1628
20985  20931.0   999.345     12.6968  14.7804     0.0   70.1660
20995  20941.0   999.745     12.7097  14.7934     0.0   70.1988
21005  20951.0  1000.145     12.7232  14.8069     0.0   70.2101
21015  20961.0  1000.545     12.7366  14.8203     0.0   70.2241
21025  20971.0  1000.945     12.7501  14.8338     0.0   70.2364
21035  20981.0  1001.345     12.7619  14.8455     0.0   70.2401
21045  20991.0  1001.745     12.7760  14.8597     0.0   70.2801
21055  21001.0  1002.145     12.7898  14.8734     0.0   70.2912
21065  21011.0  1002.545     12.8032  14.8869     0.0   70.3070
21075  21021.0  1002.945     12.8162  14.8999     0.0   70.3168
21085  21031.0  1003.345     12.8297  14.9134     0.0   70.3287
21095  21041.0  1003.745     12.8433  14.9269     0.0   70.3725
21105  21051.0  1004.145     12.8564  14.9401     0.0   70.3613
21115  21061.0  1004.545     12.8702  14.9539     0.0   70.3820
21125  21071.0  1004.945     12.8829  14.9666     0.0   70.4041
21135  21081.0  1005.345     12.8967  14.9804     0.0   70.4371
21145  21091.0  1005.745     12.9096  14.9933     0.0   70.4310
21155  21101.0  1006.145     12.9233  15.0070     0.0   70.4563
21165  21111.0  1006.545     12.9370  15.0206     0.0   70.4676
21175  21121.0  1006.945     12.9502  15.0338     0.0   70.4675
21185  21131.0  1007.345     12.9633  15.0469     0.0   70.5120
21195  21141.0  1007.745     12.9763  15.0600     0.0   70.5091
21205  21151.0  1008.145     12.9910  15.0746     0.0   70.5263
21215  21161.0  1008.545     13.0031  15.0868     0.0   70.5383
21225  21171.0  1008.945     13.0162  15.0998     0.0   70.5514
21235  21181.0  1009.345     13.0299  15.1136     0.0   70.5590
21245  21191.0  1009.745     13.0426  15.1263     0.0   70.5898
21255  21201.0  1010.145     13.0564  15.1400     0.0   70.5821
21265  21211.0  1010.545     13.0696  15.1533     0.0   70.6004
21275  21221.0  1010.945     13.0835  15.1671     0.0   70.6080
21285  21231.0  1011.345     13.0967  15.1804     0.0   70.6247
21295  21241.0  1011.745     13.1096  15.1933     0.0   70.6193
21305  21251.0  1012.145     13.1229  15.2065     0.0   70.6231
21315  21261.0  1012.545     13.1360  15.2197     0.0   70.6463
21325  21271.0  1012.945     13.1502  15.2339     0.0   70.6588
21335  21281.0  1013.345     13.1631  15.2467     0.0   70.6760
21345  21291.0  1013.745     13.1760  15.2597     0.0   70.6752
21355  21301.0  1014.145     13.1894  15.2731     0.0   70.6938
21365  21311.0  1014.545     13.2035  15.2872     0.0   70.7001
21375  21321.0  1014.945     13.2165  15.3002     0.0   70.6985
21385  21331.0  1015.345     13.2293  15.3129     0.0   70.7192
21395  21341.0  1015.745     13.2436  15.3272     0.0   70.7540
21405  21351.0  1016.145     13.2564  15.3400     0.0   70.7446
21415  21361.0  1016.545     13.2692  15.3528     0.0   70.7571
21425  21371.0  1016.945     13.2836  15.3672     0.0   70.7850
21435  21381.0  1017.345     13.2964  15.3800     0.0   70.7712
21445  21391.0  1017.745     13.3091  15.3928     0.0   70.7748
21455  21401.0  1018.145     13.3233  15.4070     0.0   70.8153
21465  21411.0  1018.545     13.3363  15.4200     0.0   70.8303
21475  21421.0  1018.945     13.3499  15.4335     0.0   70.8506
21485  21431.0  1019.345     13.3624  15.4460     0.0   70.8500
21495  21441.0  1019.745     13.3762  15.4599     0.0   70.8671
21506  21451.0  1020.145     13.3929  15.4765     0.0   70.9673
21516  21461.0  1020.545     13.4207  15.5044     0.0   71.2162
21526  21471.0  1020.945     13.4468  15.5305     0.0   71.3314
21536  21481.0  1021.345     13.4733  15.5569     0.0   71.4318
21546  21491.0  1021.745     13.5000  15.5837     0.0   71.4776
21556  21501.0  1022.145     13.5267  15.6103     0.0   71.5160
21566  21511.0  1022.545     13.5533  15.6369     0.0   71.5523
21576  21521.0  1022.945     13.5800  15.6637     0.0   71.5953
21586  21531.0  1023.345     13.6071  15.6908     0.0   71.5914
21596  21541.0  1023.745     13.6337  15.7173     0.0   71.6372
21606  21551.0  1024.145     13.6602  15.7438     0.0   71.6536
21616  21561.0  1024.545     13.6868  15.7705     0.0   71.6738
21626  21571.0  1024.945     13.7135  15.7971     0.0   71.7064
21636  21581.0  1025.345     13.7403  15.8240     0.0   71.7422
21646  21591.0  1025.745     13.7672  15.8509     0.0   71.7519
21656  21601.0  1026.145     13.7936  15.8773     0.0   71.7797
21666  21611.0  1026.545     13.8203  15.9040     0.0   71.8146
21676  21621.0  1026.945     13.8463  15.9300     0.0   71.8537
21686  21631.0  1027.345     13.8736  15.9572     0.0   71.8855
21696  21641.0  1027.745     13.9001  15.9837     0.0   71.9052
21706  21651.0  1028.145     13.9264  16.0100     0.0   71.9298
21716  21661.0  1028.545     13.9532  16.0369     0.0   71.9558
21726  21671.0  1028.945     13.9799  16.0635     0.0   72.0019
21736  21681.0  1029.345     14.0054  16.0891     0.0   71.9949
21746  21691.0  1029.745     14.0327  16.1164     0.0   72.0475
21756  21701.0  1030.145     14.0597  16.1433     0.0   72.0908
21766  21711.0  1030.545     14.0865  16.1701     0.0   72.1213
21776  21721.0  1030.945     14.1129  16.1965     0.0   72.1327
21786  21731.0  1031.345     14.1403  16.2240     0.0   72.1748
21796  21741.0  1031.745     14.1664  16.2501     0.0   72.2014
21806  21751.0  1032.145     14.1938  16.2774     0.0   72.2268
21816  21761.0  1032.545     14.2204  16.3041     0.0   72.2155
21826  21771.0  1032.945     14.2466  16.3302     0.0   72.2896
21836  21781.0  1033.345     14.2735  16.3571     0.0   72.2868
21846  21791.0  1033.745     14.3003  16.3839     0.0   72.3553
21856  21801.0  1034.145     14.3264  16.4100     0.0   72.3679
21866  21811.0  1034.545     14.3529  16.4365     0.0   72.4017
21876  21821.0  1034.945     14.3799  16.4636     0.0   72.4268
21886  21831.0  1035.345     14.4069  16.4906     0.0   72.4470
21896  21841.0  1035.745     14.4330  16.5167     0.0   72.4776
21906  21851.0  1036.145     14.4594  16.5431     0.0   72.5293
21916  21861.0  1036.545     14.4866  16.5703     0.0   72.5707
21926  21871.0  1036.945     14.5136  16.5972     0.0   72.5803
21936  21881.0  1037.345     14.5400  16.6236     0.0   72.6019
21946  21891.0  1037.745     14.5668  16.6504     0.0   72.6316
21956  21901.0  1038.145     14.5941  16.6778     0.0   72.6474
21966  21911.0  1038.545     14.6203  16.7040     0.0   72.7126
21976  21921.0  1038.945     14.6470  16.7306     0.0   72.7360
21986  21931.0  1039.345     14.6734  16.7570     0.0   72.7352
21996  21941.0  1039.745     14.6999  16.7835     0.0   72.7720
22006  21951.0  1040.145     14.7269  16.8105     0.0   72.7827
22016  21961.0  1040.545     14.7529  16.8366     0.0   72.8194
22026  21971.0  1040.945     14.7806  16.8643     0.0   72.8439
22036  21981.0  1041.345     14.8062  16.8898     0.0   72.8723
22046  21991.0  1041.745     14.8332  16.9169     0.0   72.9051
22056  22001.0  1042.145     14.8601  16.9437     0.0   72.9355
22066  22011.0  1042.545     14.8871  16.9708     0.0   72.9670
22076  22021.0  1042.945     14.9127  16.9963     0.0   72.9828
22086  22031.0  1043.345     14.9403  17.0240     0.0   73.0104
22096  22041.0  1043.745     14.9666  17.0502     0.0   73.0182
22106  22051.0  1044.145     14.9936  17.0772     0.0   73.0398
22116  22061.0  1044.545     15.0199  17.1036     0.0   73.0800
22126  22071.0  1044.945     15.0460  17.1297     0.0   73.0931
22136  22081.0  1045.345     15.0737  17.1574     0.0   73.1538
22146  22091.0  1045.745     15.1005  17.1842     0.0   73.1543
22156  22101.0  1046.145     15.1265  17.2102     0.0   73.2105
22166  22111.0  1046.545     15.1527  17.2364     0.0   73.2237
22176  22121.0  1046.945     15.1795  17.2631     0.0   73.2433
22186  22131.0  1047.345     15.2066  17.2903     0.0   73.2970
22196  22141.0  1047.745     15.2335  17.3172     0.0   73.3167
22206  22151.0  1048.145     15.2608  17.3445     0.0   73.3497
22216  22161.0  1048.545     15.2869  17.3706     0.0   73.3627
22226  22171.0  1048.945     15.3130  17.3967     0.0   73.4115
22236  22181.0  1049.345     15.3397  17.4234     0.0   73.4397
22246  22191.0  1049.745     15.3671  17.4508     0.0   73.4643
22256  22201.0  1050.145     15.3934  17.4771     0.0   73.5034
22266  22211.0  1050.545     15.4202  17.5038     0.0   73.5076
22276  22221.0  1050.945     15.4475  17.5312     0.0   73.5355
22286  22231.0  1051.345     15.4737  17.5573     0.0   73.5718
22296  22241.0  1051.745     15.5009  17.5845     0.0   73.5998
22306  22251.0  1052.145     15.5274  17.6111     0.0   73.6202
22316  22261.0  1052.545     15.5536  17.6373     0.0   73.6489
22326  22271.0  1052.945     15.5797  17.6634     0.0   73.6696
22336  22281.0  1053.345     15.6070  17.6907     0.0   73.6832
22346  22291.0  1053.745     15.6334  17.7171     0.0   73.7094
22356  22301.0  1054.145     15.6598  17.7434     0.0   73.7405
22366  22311.0  1054.545     15.6870  17.7707     0.0   73.7600
22376  22321.0  1054.945     15.7134  17.7971     0.0   73.7965
22386  22331.0  1055.345     15.7401  17.8238     0.0   73.8324
22396  22341.0  1055.745     15.7671  17.8508     0.0   73.8444
22406  22351.0  1056.145     15.7936  17.8772     0.0   73.8862
22416  22361.0  1056.545     15.8203  17.9040     0.0   73.8879
22426  22371.0  1056.945     15.8461  17.9298     0.0   73.8971
22436  22381.0  1057.345     15.8730  17.9567     0.0   73.9416
22446  22391.0  1057.745     15.8994  17.9830     0.0   73.9694
22456  22401.0  1058.145     15.9265  18.0102     0.0   73.9828
22466  22411.0  1058.545     15.9532  18.0368     0.0   74.0109
22476  22421.0  1058.945     15.9807  18.0643     0.0   74.0553
22486  22431.0  1059.345     16.0068  18.0904     0.0   74.0651
22496  22441.0  1059.745     16.0336  18.1173     0.0   74.0979
22506  22451.0  1060.145     16.0600  18.1437     0.0   74.1069
22516  22461.0  1060.545     16.0862  18.1699     0.0   74.1246
22526  22471.0  1060.945     16.1137  18.1974     0.0   74.1527
22536  22481.0  1061.345     16.1395  18.2232     0.0   74.1614
22546  22491.0  1061.745     16.1670  18.2507     0.0   74.1851
22556  22501.0  1062.145     16.1940  18.2776     0.0   74.2199
22566  22511.0  1062.545     16.2198  18.3035     0.0   74.2198
22576  22521.0  1062.945     16.2461  18.3298     0.0   74.2655
22586  22531.0  1063.345     16.2734  18.3571     0.0   74.2718
22596  22541.0  1063.745     16.3007  18.3844     0.0   74.3055
22606  22551.0  1064.145     16.3274  18.4110     0.0   74.3137
22616  22561.0  1064.545     16.3531  18.4368     0.0   74.3406
22626  22571.0  1064.945     16.3797  18.4633     0.0   74.3429
22636  22581.0  1065.345     16.4061  18.4897     0.0   74.3263
22646  22591.0  1065.745     16.4334  18.5171     0.0   74.3541
22656  22601.0  1066.145     16.4598  18.5435     0.0   74.4003
22666  22611.0  1066.545     16.4868  18.5704     0.0   74.3959
22676  22621.0  1066.945     16.5135  18.5972     0.0   74.4142
22686  22631.0  1067.345     16.5404  18.6240     0.0   74.4356
22696  22641.0  1067.745     16.5665  18.6502     0.0   74.4438
22706  22651.0  1068.145     16.5930  18.6767     0.0   74.4456
22716  22661.0  1068.545     16.6211  18.7048     0.0   74.5056
22726  22671.0  1068.945     16.6466  18.7303     0.0   74.4945
22736  22681.0  1069.345     16.6735  18.7572     0.0   74.5002
22746  22691.0  1069.745     16.7003  18.7840     0.0   74.5402
22756  22701.0  1070.145     16.7272  18.8109     0.0   74.5727
22766  22711.0  1070.545     16.7535  18.8372     0.0   74.6100
22776  22721.0  1070.945     16.7807  18.8644     0.0   74.6119
22786  22731.0  1071.345     16.8061  18.8897     0.0   74.6185
22796  22741.0  1071.745     16.8331  18.9167     0.0   74.6416
22806  22751.0  1072.145     16.8606  18.9443     0.0   74.6632
22816  22761.0  1072.545     16.8866  18.9703     0.0   74.6611
22826  22771.0  1072.945     16.9147  18.9984     0.0   74.6863
22836  22781.0  1073.345     16.9406  19.0243     0.0   74.7080
22846  22791.0  1073.745     16.9663  19.0500     0.0   74.7309
22856  22801.0  1074.145     16.9930  19.0767     0.0   74.7622
22866  22811.0  1074.545     17.0202  19.1038     0.0   74.7851
22876  22821.0  1074.945     17.0470  19.1306     0.0   74.7901
22886  22831.0  1075.345     17.0716  19.1553     0.0   74.7944
22896  22841.0  1075.745     17.1002  19.1838     0.0   74.8160
22906  22851.0  1076.145     17.1264  19.2101     0.0   74.8278
22916  22861.0  1076.545     17.1540  19.2377     0.0   74.8637
22926  22871.0  1076.945     17.1804  19.2641     0.0   74.8413
22936  22881.0  1077.345     17.2075  19.2911     0.0   74.8961
22946  22891.0  1077.745     17.2336  19.3172     0.0   74.8974
22956  22901.0  1078.145     17.2611  19.3447     0.0   74.9160
22966  22911.0  1078.545     17.2871  19.3708     0.0   74.9123
22976  22921.0  1078.945     17.3135  19.3972     0.0   74.9091
22986  22931.0  1079.345     17.3399  19.4236     0.0   74.9012
22996  22941.0  1079.745     17.3675  19.4512     0.0   74.9387
23006  22951.0  1080.145     17.3938  19.4775     0.0   74.9080
23016  22961.0  1080.545     17.4190  19.5027     0.0   74.9124
23026  22971.0  1080.945     17.4461  19.5298     0.0   74.9267
23036  22981.0  1081.345     17.4737  19.5574     0.0   74.9436
23046  22991.0  1081.745     17.5004  19.5841     0.0   74.9376
23056  23001.0  1082.145     17.5270  19.6107     0.0   74.9117
23066  23011.0  1082.545     17.5531  19.6368     0.0   74.9144
23076  23021.0  1082.945     17.5804  19.6640     0.0   74.9149
23086  23031.0  1083.345     17.6058  19.6895     0.0   74.9033
23096  23041.0  1083.745     17.6338  19.7175     0.0   74.9048
23106  23051.0  1084.145     17.6607  19.7443     0.0   74.8752
23116  23061.0  1084.545     17.6857  19.7694     0.0   74.8312
23126  23071.0  1084.945     17.7133  19.7970     0.0   74.8124
23136  23081.0  1085.345     17.7409  19.8245     0.0   74.7823
23146  23091.0  1085.745     17.7652  19.8489     0.0   74.7256
23156  23101.0  1086.145     17.7933  19.8770     0.0   74.6989
23166  23111.0  1086.545     17.8199  19.9036     0.0   74.6204
23176  23121.0  1086.945     17.8467  19.9303     0.0   74.5244
23186  23131.0  1087.345     17.8736  19.9572     0.0   74.4669
23196  23141.0  1087.745     17.8996  19.9832     0.0   74.3736
23206  23151.0  1088.145     17.9265  20.0102     0.0   74.2839
23216  23161.0  1088.545     17.9534  20.0371     0.0   74.1894
23226  23171.0  1088.945     17.9804  20.0641     0.0   74.1289
23236  23181.0  1089.345     18.0069  20.0906     0.0   74.0001
23246  23191.0  1089.745     18.0336  20.1173     0.0   73.9075
23256  23201.0  1090.145     18.0600  20.1437     0.0   73.7118
23266  23211.0  1090.545     18.0875  20.1711     0.0   73.5430
23276  23221.0  1090.945     18.1131  20.1968     0.0   73.3513
23286  23231.0  1091.345     18.1405  20.2242     0.0   73.1559
23296  23241.0  1091.745     18.1666  20.2503     0.0   72.9908
23306  23251.0  1092.145     18.1941  20.2777     0.0   72.8209
23316  23261.0  1092.545     18.2202  20.3038     0.0   72.6443
23326  23271.0  1092.945     18.2472  20.3308     0.0   72.3853
23336  23281.0  1093.345     18.2739  20.3576     0.0   72.0960
23346  23291.0  1093.745     18.3008  20.3845     0.0   71.7563
23356  23301.0  1094.145     18.3280  20.4116     0.0   71.3709
23366  23311.0  1094.545     18.3539  20.4376     0.0   71.0493
23376  23321.0  1094.945     18.3810  20.4647     0.0   70.7435
23386  23331.0  1095.345     18.4071  20.4907     0.0   70.4962
23396  23341.0  1095.745     18.4341  20.5178     0.0   70.3011
23406  23351.0  1096.145     18.4604  20.5440     0.0   70.0937
23416  23361.0  1096.545     18.4874  20.5710     0.0   69.9640
23426  23371.0  1096.945     18.5140  20.5976     0.0   69.8361
23436  23381.0  1097.345     18.5398  20.6235     0.0   69.7036
23446  23391.0  1097.745     18.5679  20.6516     0.0   69.6210
23456  23401.0  1098.145     18.5945  20.6782     0.0   69.4846
23466  23411.0  1098.545     18.6205  20.7042     0.0   69.3366
23476  23421.0  1098.945     18.6476  20.7312     0.0   69.1551
23486  23431.0  1099.345     18.6742  20.7579     0.0   68.9044
23496  23441.0  1099.745     18.7018  20.7855     0.0   68.5921
23506  23451.0  1100.145     18.7277  20.8114     0.0   68.1931
23516  23461.0  1100.545     18.7542  20.8378     0.0   67.7982
23526  23471.0  1100.945     18.7798  20.8635     0.0   67.3507
23536  23481.0  1101.345     18.8080  20.8916     0.0   66.8587
23546  23491.0  1101.745     18.8352  20.9188     0.0   66.2885
23556  23501.0  1102.145     18.8609  20.9446     0.0   65.6633
23566  23511.0  1102.545     18.8890  20.9727     0.0   64.6967
23576  23521.0  1102.945     18.9148  20.9985     0.0   63.4510
23586  23531.0  1103.345     18.9406  21.0243     0.0   61.1845
23596  23541.0  1103.745     18.9693  21.0530     0.0   54.2819
23606  23551.0  1104.145     18.9942  21.0779     0.0   47.5411
23616  23561.0  1104.545     19.0220  21.1057     0.0   45.0809
23626  23571.0  1104.945     19.0483  21.1320     0.0   43.7758
23636  23581.0  1105.345     19.0758  21.1594     0.0   42.9615
23646  23591.0  1105.745     19.1018  21.1855     0.0   42.4358
23656  23601.0  1106.145     19.1288  21.2125     0.0   42.0080
23666  23611.0  1106.545     19.1557  21.2393     0.0   41.5438
23676  23621.0  1106.945     19.1813  21.2650     0.0   41.1184
23686  23631.0  1107.345     19.2089  21.2926     0.0   40.6633
23696  23641.0  1107.745     19.2350  21.3187     0.0   40.2397
23706  23651.0  1108.145     19.2623  21.3459     0.0   39.7375
23716  23661.0  1108.545     19.2890  21.3727     0.0   39.2741
23726  23671.0  1108.945     19.3150  21.3986     0.0   38.8699
23736  23681.0  1109.345     19.3421  21.4258     0.0   38.4712
23746  23691.0  1109.745     19.3684  21.4520     0.0   38.0051
23756  23701.0  1110.145     19.3955  21.4792     0.0   37.6460
23766  23711.0  1110.545     19.4233  21.5069     0.0   37.3717
23776  23721.0  1110.945     19.4475  21.5312     0.0   37.0808
23786  23731.0  1111.345     19.4755  21.5591     0.0   36.7474
23796  23741.0  1111.745     19.5026  21.5863     0.0   35.5659
23806  23751.0  1112.145     19.5294  21.6131     0.0   34.2566
23816  23761.0  1112.545     19.5563  21.6400     0.0   33.6763
23826  23771.0  1112.945     19.5827  21.6663     0.0   33.3878
23836  23781.0  1113.345     19.6082  21.6918     0.0   33.1146
23846  23791.0  1113.745     19.6356  21.7192     0.0   32.7572
23856  23801.0  1114.145     19.6620  21.7457     0.0   32.5127
23866  23811.0  1114.545     19.6896  21.7733     0.0   32.4192